EXPID. 0509
[电化学]: i-t : @ 0(V) X 600(sec)
起始电位 (V),0
静置时间 (秒),0
运行时间 (秒),600
记录间隔,0.1
电解液 信息:
HNO3,0.4
0.1,-0.01005814
0.2,-0.01005814
0.3,-0.01005814
0.4,-0.01005814
0.5,-0.01005814
0.6,-0.01005814
0.7,-0.01005814
0.8000001,-0.009072331
0.9000001,0.003718509
1,0.001439425
1.1,-0.00161794
1.2,-0.003442818
1.3,-0.004098908
1.4,-0.004201312
1.5,-0.004179236
1.6,-0.004135062
1.7,-0.004087893
1.8,-0.004025492
1.9,-0.003939612
2,-0.003863925
2.1,-0.003777137
2.2,-0.003691265
2.3,-0.003622239
2.4,-0.003550701
2.5,-0.003479779
2.6,-0.00342044
2.7,-0.003361243
2.799999,-0.003300087
2.899999,-0.003246562
2.999999,-0.003190798
3.099999,-0.003131466
3.199999,-0.003072605
3.299999,-0.002999808
3.399999,-0.002925633
3.499999,-0.002838559
3.599999,-0.002747543
3.699999,-0.002660021
3.799999,-0.002577029
3.899998,-0.002490264
3.999998,-0.002416061
4.099998,-0.00234427
4.199998,-0.002282894
4.299998,-0.002220189
4.399998,-0.002166419
4.499998,-0.002117075
4.599998,-0.002070131
4.699998,-0.0020277
4.799998,-0.001988174
4.899998,-0.00195098
4.999998,-0.001916628
5.099998,-0.001882894
5.199997,-0.001852401
5.299997,-0.001824048
5.399997,-0.001796849
5.499997,-0.001771774
5.599997,-0.001748414
5.699997,-0.001724867
5.799997,-0.001702936
5.899997,-0.001682363
5.999997,-0.00166247
6.099997,-0.001643727
6.199996,-0.001625742
6.299996,-0.001608158
6.399996,-0.001591907
6.499996,-0.001575769
6.599996,-0.001560426
6.699996,-0.001545753
6.799996,-0.001531369
6.899996,-0.001517977
6.999996,-0.001505522
7.099996,-0.001491454
7.199996,-0.001480047
7.299995,-0.001468432
7.399995,-0.001455978
7.499995,-0.001445293
7.599995,-0.001434302
7.699995,-0.001423574
7.799995,-0.001413383
7.899995,-0.001403162
7.999995,-0.001393323
8.099995,-0.001384689
8.199995,-0.001375102
8.299995,-0.001366294
8.399996,-0.001357573
8.499996,-0.001349008
8.599997,-0.001340222
8.699997,-0.001331808
8.799997,-0.001323947
8.899998,-0.00131592
8.999998,-0.001307945
9.099998,-0.001300751
9.199999,-0.001293255
9.299999,-0.001285744
9.4,-0.00127871
9.5,-0.001271846
9.6,-0.001264978
9.700001,-0.001258384
9.800001,-0.001251862
9.900002,-0.001245412
10,-0.001238846
10.1,-0.001232711
10.2,-0.001226706
10.3,-0.001220649
10.4,-0.001214903
10.5,-0.001209244
10.6,-0.001203138
10.7,-0.001197753
10.8,-0.001192303
10.90001,-0.00118645
11.00001,-0.001181014
11.10001,-0.001176122
11.20001,-0.001170469
11.30001,-0.001165597
11.40001,-0.001160283
11.50001,-0.001155388
11.60001,-0.001150824
11.70001,-0.001145491
11.80001,-0.001141356
11.90001,-0.001136655
12.00001,-0.001131748
12.10001,-0.001127806
12.20001,-0.001123052
12.30001,-0.001118332
12.40001,-0.001114207
12.50001,-0.001109971
12.60001,-0.001105682
12.70001,-0.00110139
12.80001,-0.001097393
12.90001,-0.001093276
13.00001,-0.001088953
13.10001,-0.001085192
13.20001,-0.00108107
13.30001,-0.001076803
13.40001,-0.001073133
13.50002,-0.001069222
13.60002,-0.001065292
13.70002,-0.00106146
13.80002,-0.001057887
13.90002,-0.001053884
14.00002,-0.001050286
14.10002,-0.0010467
14.20002,-0.001042834
14.30002,-0.001039601
14.40002,-0.00103605
14.50002,-0.001032459
14.60002,-0.001029022
14.70002,-0.001025459
14.80002,-0.001022114
14.90002,-0.001018625
15.00002,-0.001015285
15.10002,-0.001012009
15.20002,-0.001008689
15.30002,-0.001005469
15.40002,-0.001002412
15.50002,-0.000998979
15.60002,-0.0009958911
15.70002,-0.0009928766
15.80002,-0.0009898884
15.90002,-0.0009865764
16.00002,-0.000983511
16.10003,-0.0009812311
16.20003,-0.0009779285
16.30003,-0.0009750119
16.40003,-0.0009724119
16.50003,-0.0009692626
16.60003,-0.0009663019
16.70003,-0.0009635087
16.80003,-0.0009607645
16.90003,-0.0009579873
17.00003,-0.0009551084
17.10003,-0.0009524292
17.20003,-0.0009498479
17.30003,-0.0009468024
17.40003,-0.000943949
17.50003,-0.0009414675
17.60003,-0.0009387977
17.70003,-0.0009359301
17.80003,-0.0009334128
17.90003,-0.0009308429
18.00003,-0.0009280949
18.10003,-0.0009257264
18.20003,-0.0009232497
18.30003,-0.000920465
18.40003,-0.000917944
18.50003,-0.0009153796
18.60003,-0.0009129923
18.70004,-0.0009105768
18.80004,-0.0009080549
18.90004,-0.0009058549
19.00004,-0.0009032247
19.10004,-0.0009007339
19.20004,-0.0008983728
19.30004,-0.0008958632
19.40004,-0.0008934957
19.50004,-0.0008912139
19.60004,-0.000888836
19.70004,-0.000886379
19.80004,-0.0008842365
19.90004,-0.000881757
20.00004,-0.0008795298
20.10004,-0.0008773195
20.20004,-0.0008749464
20.30004,-0.0008727465
20.40004,-0.0008705391
20.50004,-0.0008682394
20.60004,-0.0008660386
20.70004,-0.000863768
20.80004,-0.0008616595
20.90004,-0.0008594285
21.00004,-0.0008572409
21.10004,-0.0008551163
21.20004,-0.0008529918
21.30005,-0.0008508645
21.40005,-0.0008488925
21.50005,-0.000846605
21.60005,-0.0008447328
21.70005,-0.0008427976
21.80005,-0.0008405637
21.90005,-0.000838541
22.00005,-0.0008367488
22.10005,-0.0008346449
22.20005,-0.0008325638
22.30005,-0.000830766
22.40005,-0.0008287658
22.50005,-0.0008267298
22.60005,-0.0008250817
22.70005,-0.0008231342
22.80005,-0.0008209409
22.90005,-0.0008190236
23.00005,-0.0008172079
23.10005,-0.000815137
23.20005,-0.0008132828
23.30005,-0.0008114737
23.40005,-0.0008095092
23.50005,-0.0008077153
23.60005,-0.0008059881
23.70005,-0.000803921
23.80005,-0.0008020808
23.90005,-0.0008002652
24.00006,-0.0007984411
24.10006,-0.0007967535
24.20006,-0.0007949604
24.30006,-0.000793076
24.40006,-0.0007912321
24.50006,-0.0007894174
24.60006,-0.0007877618
24.70006,-0.0007861797
24.80006,-0.0007845731
24.90006,-0.0007834035
25.00006,-0.0007824193
25.10006,-0.0007817122
25.20006,-0.0007804116
25.30006,-0.0007784349
25.40006,-0.0007768613
25.50006,-0.000774684
25.60006,-0.0007726122
25.70006,-0.0007709209
25.80006,-0.000769045
25.90006,-0.0007670833
26.00006,-0.0007654541
26.10006,-0.0007636969
26.20006,-0.0007618896
26.30006,-0.0007602831
26.40006,-0.0007585418
26.50006,-0.0007568693
26.60007,-0.0007551619
26.70007,-0.0007535186
26.80007,-0.0007518997
26.90007,-0.0007502621
27.00007,-0.0007485641
27.10007,-0.0007469981
27.20007,-0.0007453199
27.30007,-0.0007439196
27.40007,-0.0007423949
27.50007,-0.0007405802
27.60007,-0.0007389868
27.70007,-0.0007375534
27.80007,-0.0007359855
27.90007,-0.0007347546
28.00007,-0.0007332347
28.10007,-0.0007317816
28.20007,-0.0007305573
28.30007,-0.0007291541
28.40007,-0.0007278696
28.50007,-0.0007266501
28.60007,-0.0007256302
28.70007,-0.0007245764
28.80007,-0.0007231986
28.90007,-0.0007219781
29.00007,-0.0007207256
29.10007,-0.0007188619
29.20008,-0.0007171932
29.30008,-0.0007153079
29.40008,-0.0007135638
29.50008,-0.000712009
29.60008,-0.0007104099
29.70008,-0.0007089097
29.80008,-0.0007075348
29.90008,-0.0007059894
30.00008,-0.0007044807
30.10008,-0.0007032509
30.20008,-0.0007016424
30.30008,-0.0007002694
30.40008,-0.0006988982
30.50008,-0.000697431
30.60008,-0.0006960043
30.70008,-0.0006946453
30.80008,-0.0006932261
30.90008,-0.0006918145
31.00008,-0.0006905167
31.10008,-0.0006891174
31.20008,-0.0006877942
31.30008,-0.0006864814
31.40008,-0.0006851489
31.50008,-0.0006837005
31.60008,-0.0006824424
31.70008,-0.0006812219
31.80009,-0.0006796934
31.90009,-0.0006783346
32.00008,-0.0006771507
32.10008,-0.0006759425
32.20008,-0.0006745544
32.30008,-0.0006732897
32.40008,-0.0006718762
32.50008,-0.0006705342
32.60007,-0.0006693617
32.70007,-0.0006679943
32.80007,-0.0006666411
32.90007,-0.0006655637
33.00007,-0.0006642868
33.10007,-0.0006630456
33.20007,-0.0006617676
33.30006,-0.0006605471
33.40006,-0.0006592833
33.50006,-0.0006580855
33.60006,-0.0006569026
33.70006,-0.0006556454
33.80006,-0.000654489
33.90005,-0.0006533532
34.00005,-0.0006522278
34.10005,-0.0006510517
34.20005,-0.0006497191
34.30005,-0.0006484477
34.40005,-0.0006472151
34.50005,-0.0006460304
34.60004,-0.0006448277
34.70004,-0.0006436976
34.80004,-0.0006425177
34.90004,-0.0006412831
35.00004,-0.0006400946
35.10004,-0.0006389278
35.20004,-0.0006376706
35.30003,-0.0006364388
35.40003,-0.000635352
35.50003,-0.0006341617
35.60003,-0.0006328988
35.70003,-0.0006318497
35.80003,-0.0006307075
35.90002,-0.0006294276
36.00002,-0.0006284086
36.10002,-0.0006272824
36.20002,-0.0006260647
36.30002,-0.0006249789
36.40002,-0.0006239543
36.50002,-0.0006228185
36.60001,-0.0006216706
36.70001,-0.0006204671
36.80001,-0.000619418
36.90001,-0.0006182634
37.00001,-0.000617218
37.10001,-0.0006160823
37.2,-0.0006149975
37.3,-0.0006139305
37.4,-0.000612952
37.5,-0.0006117325
37.6,-0.0006107239
37.7,-0.0006096626
37.8,-0.0006084816
37.89999,-0.0006078045
37.99999,-0.0006068534
38.09999,-0.0006055754
38.19999,-0.0006046073
38.29999,-0.0006035347
38.39999,-0.0006024084
38.49998,-0.0006014733
38.59998,-0.0006004063
38.69998,-0.0005992188
38.79998,-0.0005982224
38.89998,-0.0005972289
38.99998,-0.0005961761
39.09998,-0.0005951542
39.19997,-0.0005941052
39.29997,-0.000593074
39.39997,-0.0005921341
39.49997,-0.0005911406
39.59997,-0.0005900707
39.69997,-0.0005890377
39.79996,-0.0005881167
39.89996,-0.0005870911
39.99996,-0.0005860477
40.09996,-0.0005851869
40.19996,-0.0005842207
40.29996,-0.0005831057
40.39996,-0.0005821828
40.49995,-0.0005811413
40.59995,-0.0005801741
40.69995,-0.0005794019
40.79995,-0.000578478
40.89995,-0.0005774666
40.99995,-0.000576557
41.09995,-0.0005755983
41.19994,-0.0005745727
41.29994,-0.0005736875
41.39994,-0.0005727514
41.49994,-0.0005718709
41.59994,-0.0005709141
41.69994,-0.0005698829
41.79993,-0.0005688734
41.89993,-0.0005679373
41.99993,-0.0005669164
42.09993,-0.000565937
42.19993,-0.0005650038
42.29993,-0.0005640094
42.39993,-0.0005630873
42.49992,-0.0005620976
42.59992,-0.0005612416
42.69992,-0.0005602273
42.79992,-0.000559214
42.89992,-0.0005583711
42.99992,-0.0005574765
43.09991,-0.0005565367
43.19991,-0.0005557287
43.29991,-0.0005548604
43.39991,-0.000554091
43.49991,-0.0005533235
43.59991,-0.0005527029
43.69991,-0.0005522282
43.7999,-0.0005515229
43.8999,-0.0005508185
43.9999,-0.0005501733
44.0999,-0.0005493088
44.1999,-0.0005485
44.2999,-0.0005476241
44.39989,-0.0005466437
44.49989,-0.000545847
44.59989,-0.0005446681
44.69989,-0.0005435568
44.79989,-0.0005426264
44.89989,-0.0005416639
44.99989,-0.0005405818
45.09988,-0.0005397051
45.19988,-0.0005387501
45.29988,-0.0005377181
45.39988,-0.0005368649
45.49988,-0.0005359052
45.59988,-0.0005349719
45.69987,-0.0005341254
45.79987,-0.0005333258
45.89987,-0.0005322871
45.99987,-0.0005314678
46.09987,-0.0005305505
46.19987,-0.0005296775
46.29987,-0.0005289025
46.39986,-0.0005281792
46.49986,-0.0005273297
46.59986,-0.0005265406
46.69986,-0.000526245
46.79986,-0.0005251186
46.89986,-0.0005240638
46.99986,-0.000523432
47.09985,-0.0005224657
47.19985,-0.0005213715
47.29985,-0.0005205974
47.39985,-0.0005197781
47.49985,-0.0005188797
47.59985,-0.000518164
47.69984,-0.0005173531
47.79984,-0.0005164518
47.89984,-0.0005156175
47.99984,-0.0005149
48.09984,-0.0005141287
48.19984,-0.0005133225
48.29984,-0.0005125211
48.39983,-0.0005116773
48.49983,-0.0005107526
48.59983,-0.000510147
48.69983,-0.0005093954
48.79983,-0.0005084867
48.89983,-0.0005078905
48.99982,-0.0005071184
49.09982,-0.0005062661
49.19982,-0.0005055428
49.29982,-0.0005047104
49.39982,-0.0005038214
49.49982,-0.0005030897
49.59982,-0.0005023475
49.69981,-0.0005015264
49.79981,-0.0005008144
49.89981,-0.0005000902
49.99981,-0.0004992295
50.09981,-0.0004984375
50.19981,-0.0004977491
50.2998,-0.0004969345
50.3998,-0.000496119
50.4998,-0.0004954616
50.5998,-0.000494727
50.6998,-0.0004938126
50.7998,-0.0004930744
50.8998,-0.0004923529
50.99979,-0.0004915252
51.09979,-0.0004907991
51.19979,-0.0004900551
51.29979,-0.0004892604
51.39979,-0.0004885889
51.49979,-0.0004877997
51.59978,-0.0004869794
51.69978,-0.0004863391
51.79978,-0.0004855989
51.89978,-0.0004848116
51.99978,-0.0004840667
52.09978,-0.0004832935
52.19978,-0.000482606
52.29977,-0.0004818913
52.39977,-0.0004811294
52.49977,-0.0004803092
52.59977,-0.0004795548
52.69977,-0.000478906
52.79977,-0.0004782863
52.89977,-0.0004775442
52.99976,-0.0004768568
53.09976,-0.0004761891
53.19976,-0.0004755374
53.29976,-0.0004751014
53.39976,-0.0004743763
53.49976,-0.000473686
53.59975,-0.0004734392
53.69975,-0.000473168
53.79975,-0.0004730729
53.89975,-0.0004734176
53.99975,-0.0004733507
54.09975,-0.0004725851
54.19975,-0.0004715115
54.29974,-0.0004703231
54.39974,-0.0004692956
54.49974,-0.0004682927
54.59974,-0.0004673623
54.69974,-0.0004665439
54.79974,-0.0004656313
54.89973,-0.0004648836
54.99973,-0.0004641453
55.09973,-0.000463407
55.19973,-0.0004631602
55.29973,-0.0004625349
55.39973,-0.0004619407
55.49973,-0.0004616016
55.59972,-0.0004613201
55.69972,-0.0004609057
55.79972,-0.0004605724
55.89972,-0.0004602013
55.99972,-0.0004594827
56.09972,-0.0004586173
56.19971,-0.0004578347
56.29971,-0.0004569928
56.39971,-0.0004562451
56.49971,-0.0004555661
56.59971,-0.0004548071
56.69971,-0.0004539199
56.79971,-0.0004530705
56.8997,-0.0004522964
56.9997,-0.0004514941
57.0997,-0.0004507896
57.1997,-0.0004500014
57.2997,-0.0004492085
57.3997,-0.0004485238
57.49969,-0.0004478222
57.59969,-0.0004470999
57.69969,-0.0004463795
57.79969,-0.0004457128
57.89969,-0.0004449989
57.99969,-0.0004442842
58.09969,-0.0004436541
58.19968,-0.0004429601
58.29968,-0.0004423122
58.39968,-0.0004418018
58.49968,-0.0004412028
58.59968,-0.0004405088
58.69968,-0.0004398401
58.79967,-0.0004392798
58.89967,-0.0004386056
58.99967,-0.0004379576
59.09967,-0.0004373106
59.19967,-0.0004366976
59.29967,-0.000436125
59.39967,-0.000435365
59.49966,-0.0004346051
59.59966,-0.0004339844
59.69966,-0.000433344
59.79966,-0.0004326999
59.89966,-0.0004321104
59.99966,-0.0004315265
60.09966,-0.0004309653
60.19965,-0.0004303409
60.29965,-0.0004297391
60.39965,-0.0004290648
60.49965,-0.0004284122
60.59965,-0.0004277652
60.69965,-0.0004272125
60.79964,-0.0004265495
60.89964,-0.0004259948
60.99964,-0.0004253742
61.09964,-0.0004247329
61.19964,-0.000424294
61.29964,-0.0004236094
61.39964,-0.0004229191
61.49963,-0.0004223352
61.59963,-0.0004217965
61.69963,-0.0004211279
61.79963,-0.0004205431
61.89963,-0.0004200101
61.99963,-0.0004193754
62.09962,-0.0004187906
62.19962,-0.00041825
62.29962,-0.0004176247
62.39962,-0.0004170446
62.49962,-0.0004164795
62.59962,-0.0004159192
62.69962,-0.0004152826
62.79961,-0.0004146771
62.89961,-0.0004141186
62.99961,-0.0004134472
63.09961,-0.000412981
63.19961,-0.0004123915
63.29961,-0.0004117313
63.3996,-0.0004112539
63.4996,-0.0004106615
63.5996,-0.0004100306
63.6996,-0.0004095437
63.7996,-0.0004089852
63.8996,-0.0004082752
63.9996,-0.0004077544
64.09959,-0.0004072101
64.19959,-0.0004066074
64.29959,-0.0004060612
64.39959,-0.0004054942
64.49959,-0.0004049377
64.59959,-0.0004044828
64.69958,-0.0004040016
64.79958,-0.0004034394
64.89958,-0.0004028527
64.99958,-0.0004023131
65.09958,-0.0004017622
65.19958,-0.0004011378
65.29958,-0.0004005954
65.39957,-0.0004000124
65.49957,-0.0003994003
65.59957,-0.0003989238
65.69957,-0.000398403
65.79957,-0.0003978013
65.89957,-0.0003972419
65.99957,-0.0003966994
66.09956,-0.0003961202
66.19956,-0.0003956259
66.29956,-0.0003951993
66.39956,-0.0003945664
66.49956,-0.0003941445
66.59956,-0.0003935295
66.69955,-0.000392941
66.79955,-0.000392471
66.89955,-0.0003920426
66.99955,-0.0003915284
67.09955,-0.000391
67.19955,-0.0003905452
67.29955,-0.0003900451
67.39954,-0.0003894481
67.49954,-0.0003888445
67.59954,-0.0003883482
67.69954,-0.0003877954
67.79954,-0.0003872755
67.89954,-0.0003868065
67.99953,-0.0003862519
68.09953,-0.0003857179
68.19953,-0.0003852367
68.29953,-0.0003847432
68.39953,-0.0003842761
68.49953,-0.0003837581
68.59953,-0.0003832006
68.69952,-0.0003827439
68.79952,-0.0003822664
68.89952,-0.0003817975
68.99952,-0.0003813257
69.09952,-0.0003808077
69.19952,-0.0003802154
69.29951,-0.0003797285
69.39951,-0.0003793348
69.49951,-0.0003787453
69.59951,-0.000378201
69.69951,-0.0003777621
69.79951,-0.0003773261
69.89951,-0.0003768007
69.9995,-0.0003763759
70.0995,-0.000375824
70.1995,-0.0003752543
70.2995,-0.0003749953
70.3995,-0.0003744228
70.4995,-0.0003738144
70.59949,-0.0003734641
70.69949,-0.0003730563
70.79949,-0.000372415
70.89949,-0.0003720082
70.99949,-0.0003715769
71.09949,-0.0003709996
71.19949,-0.0003704967
71.29948,-0.0003699759
71.39948,-0.0003694702
71.49948,-0.0003690342
71.59948,-0.0003685614
71.69948,-0.0003681659
71.79948,-0.0003677949
71.89948,-0.0003671884
71.99947,-0.0003666554
72.09947,-0.0003661459
72.19947,-0.0003657174
72.29947,-0.0003653172
72.39947,-0.0003648275
72.49947,-0.0003644771
72.59946,-0.0003639008
72.69946,-0.000363396
72.79946,-0.0003630015
72.89946,-0.0003624326
72.99946,-0.0003618676
73.09946,-0.0003614937
73.19946,-0.000361053
73.29945,-0.0003605557
73.39945,-0.0003601254
73.49945,-0.0003597299
73.59945,-0.0003593268
73.69945,-0.0003589661
73.79945,-0.0003584482
73.89944,-0.000357933
73.99944,-0.0003574876
74.09944,-0.0003570384
74.19944,-0.0003564818
74.29944,-0.0003559865
74.39944,-0.0003555862
74.49944,-0.0003551521
74.59943,-0.000354637
74.69943,-0.0003542123
74.79943,-0.0003537989
74.89943,-0.0003533138
74.99943,-0.0003529193
75.09943,-0.0003524701
75.19942,-0.0003519973
75.29942,-0.0003515839
75.39942,-0.0003511319
75.49942,-0.000350629
75.59942,-0.0003502805
75.69942,-0.0003498794
75.79942,-0.0003493313
75.89941,-0.0003488699
75.99941,-0.0003484611
76.09941,-0.0003479818
76.19941,-0.0003475411
76.29941,-0.0003471154
76.39941,-0.0003466888
76.4994,-0.000346233
76.5994,-0.000345797
76.6994,-0.0003453656
76.7994,-0.0003449117
76.8994,-0.0003445247
76.9994,-0.0003440623
77.0994,-0.0003435462
77.19939,-0.0003433164
77.29939,-0.0003429275
77.39939,-0.0003423634
77.49939,-0.0003419406
77.59939,-0.0003415281
77.69939,-0.0003410855
77.79939,-0.0003407163
77.89938,-0.0003403575
77.99938,-0.0003398932
78.09938,-0.0003397106
78.19938,-0.000339331
78.29938,-0.0003387698
78.39938,-0.0003383385
78.49937,-0.0003379128
78.59937,-0.0003374607
78.69937,-0.0003370106
78.79937,-0.000336567
78.89937,-0.0003361489
78.99937,-0.0003356696
79.09937,-0.0003352854
79.19936,-0.0003348521
79.29936,-0.0003344331
79.39936,-0.000334063
79.49936,-0.000333643
79.59936,-0.0003331504
79.69936,-0.0003327691
79.79935,-0.0003323999
79.89935,-0.0003319761
79.99935,-0.0003316163
80.09935,-0.0003312312
80.19935,-0.0003308912
80.29935,-0.0003307716
80.39935,-0.0003305513
80.49934,-0.0003300625
80.59934,-0.0003299297
80.69934,-0.0003301068
80.79934,-0.0003297263
80.89934,-0.000329327
80.99934,-0.00032902
81.09933,-0.0003286226
81.19933,-0.0003282581
81.29933,-0.0003279737
81.39933,-0.0003276319
81.49933,-0.0003271441
81.59933,-0.0003268408
81.69933,-0.0003262494
81.79932,-0.0003257381
81.89932,-0.0003253378
81.99932,-0.0003247737
82.09932,-0.0003242549
82.19932,-0.0003237849
82.29932,-0.0003233508
82.39931,-0.0003228874
82.49931,-0.0003224251
82.59931,-0.0003220088
82.69931,-0.0003215671
82.79931,-0.000321116
82.89931,-0.0003206923
82.99931,-0.0003203175
83.0993,-0.0003198984
83.1993,-0.000319501
83.2993,-0.000319081
83.3993,-0.0003186384
83.4993,-0.0003183247
83.5993,-0.0003179029
83.6993,-0.0003174405
83.79929,-0.0003170723
83.89929,-0.0003166984
83.99929,-0.0003162539
84.09929,-0.0003158866
84.19929,-0.0003154789
84.29929,-0.0003150852
84.39928,-0.0003147273
84.49928,-0.0003143667
84.59928,-0.0003140013
84.69928,-0.0003136048
84.79928,-0.0003132055
84.89928,-0.0003128166
84.99928,-0.0003123514
85.09927,-0.0003119907
85.19927,-0.0003116093
85.29927,-0.0003112552
85.39927,-0.0003110254
85.49927,-0.0003106459
85.59927,-0.0003103276
85.69926,-0.0003102231
85.79926,-0.000309852
85.89926,-0.0003094292
85.99926,-0.0003092192
86.09926,-0.0003089319
86.19926,-0.0003085119
86.29926,-0.0003082002
86.39925,-0.000307816
86.49925,-0.0003073413
86.59925,-0.0003070023
86.69925,-0.0003066134
86.79925,-0.0003061802
86.89925,-0.0003058251
86.99924,-0.0003055511
87.09924,-0.0003051518
87.19924,-0.0003046772
87.29924,-0.0003043344
87.39924,-0.0003039982
87.49924,-0.0003035904
87.59924,-0.0003032354
87.69923,-0.0003028502
87.79923,-0.0003024698
87.89923,-0.0003021034
87.99923,-0.0003017014
88.09923,-0.0003013067
88.19923,-0.0003010581
88.29922,-0.0003006842
88.39922,-0.0003003151
88.49922,-0.0002999355
88.59922,-0.0002995749
88.69922,-0.0002991643
