EXPID. 0265
[电化学]: i-t : @ 0(V) X 600(sec)
起始电位 (V),0
静置时间 (秒),0
运行时间 (秒),600
记录间隔,0.1
电解液 信息:
HNO3,0.4
0.1,-0.002812416
0.2,0.002459831
0.3,-0.0004216704
0.4,-0.002967438
0.5,-0.002714725
0.6,-0.00245314
0.7,-0.002248897
0.8000001,-0.002088597
0.9000001,-0.001959718
1,-0.001854608
1.1,-0.001766652
1.2,-0.001692212
1.3,-0.001627932
1.4,-0.001572233
1.5,-0.001522722
1.6,-0.001478849
1.7,-0.001439637
1.8,-0.001403707
1.9,-0.001371987
2,-0.00134233
2.1,-0.001314867
2.2,-0.001289942
2.3,-0.00126642
2.4,-0.001244849
2.5,-0.00122474
2.6,-0.001205765
2.7,-0.001187571
2.799999,-0.001170303
2.899999,-0.001154108
2.999999,-0.001138765
3.099999,-0.0011243
3.199999,-0.001110477
3.299999,-0.001097125
3.399999,-0.001084729
3.499999,-0.001072682
3.599999,-0.001061095
3.699999,-0.001050129
3.799999,-0.001039374
3.899998,-0.00102886
3.999998,-0.001019077
4.099998,-0.001009421
4.199998,-0.001000302
4.299998,-0.0009914857
4.399998,-0.0009828726
4.499998,-0.0009746136
4.599998,-0.0009667341
4.699998,-0.0009590694
4.799998,-0.0009516532
4.899998,-0.0009442832
4.999998,-0.000937935
5.099998,-0.0009312374
5.199997,-0.0009247019
5.299997,-0.0009186455
5.399997,-0.0009124941
5.499997,-0.0009064011
5.599997,-0.0009004889
5.699997,-0.0008947632
5.799997,-0.000889078
5.899997,-0.0008833956
5.999997,-0.000878185
6.099997,-0.0008727936
6.199996,-0.0008675049
6.299996,-0.0008625608
6.399996,-0.000857547
6.499996,-0.0008526217
6.599996,-0.0008477906
6.699996,-0.0008431018
6.799996,-0.0008384449
6.899996,-0.0008339585
6.999996,-0.0008296585
7.099996,-0.0008254773
7.199996,-0.0008212762
7.299995,-0.0008172512
7.399995,-0.0008132903
7.499995,-0.0008092672
7.599995,-0.0008052988
7.699995,-0.0008014904
7.799995,-0.0007976208
7.899995,-0.0007938718
7.999995,-0.0007902122
8.099995,-0.0007868097
8.199995,-0.0007835589
8.299995,-0.0007806207
8.399996,-0.0007777776
8.499996,-0.0007746266
8.599997,-0.0007714614
8.699997,-0.0007684064
8.799997,-0.0007651932
8.899998,-0.0007623408
8.999998,-0.0007596022
9.099998,-0.0007567035
9.199999,-0.0007540959
9.299999,-0.0007514411
9.4,-0.0007487554
9.5,-0.0007460422
9.6,-0.0007436229
9.700001,-0.0007408985
9.800001,-0.0007379302
9.900002,-0.0007351738
10,-0.0007321988
10.1,-0.0007292455
10.2,-0.0007267113
10.3,-0.0007240414
10.4,-0.0007213528
10.5,-0.0007188648
10.6,-0.0007164502
10.7,-0.0007140488
10.8,-0.0007114797
10.90001,-0.0007092723
11.00001,-0.0007068426
11.10001,-0.0007042774
11.20001,-0.0007018336
11.30001,-0.0006993493
11.40001,-0.0006969441
11.50001,-0.0006945992
11.60001,-0.0006922552
11.70001,-0.000690027
11.80001,-0.0006878281
11.90001,-0.0006857027
12.00001,-0.0006835554
12.10001,-0.000681447
12.20001,-0.0006794288
12.30001,-0.0006773401
12.40001,-0.0006751806
12.50001,-0.0006731559
12.60001,-0.0006711718
12.70001,-0.0006691781
12.80001,-0.0006672429
12.90001,-0.0006652737
13.00001,-0.0006634298
13.10001,-0.0006615312
13.20001,-0.000659773
13.30001,-0.0006579913
13.40001,-0.0006561351
13.50002,-0.0006543439
13.60002,-0.0006527138
13.70002,-0.000650788
13.80002,-0.0006490015
13.90002,-0.0006472546
14.00002,-0.0006455642
14.10002,-0.0006439255
14.20002,-0.000642334
14.30002,-0.0006405918
14.40002,-0.0006389833
14.50002,-0.0006372412
14.60002,-0.0006354594
14.70002,-0.0006337031
14.80002,-0.0006321144
14.90002,-0.0006304607
15.00002,-0.0006287891
15.10002,-0.0006272418
15.20002,-0.0006256418
15.30002,-0.0006239806
15.40002,-0.0006224795
15.50002,-0.0006208946
15.60002,-0.0006192541
15.70002,-0.000617769
15.80002,-0.0006162791
15.90002,-0.0006147535
16.00002,-0.0006131752
16.10003,-0.0006117306
16.20003,-0.0006102606
16.30003,-0.0006087981
16.40003,-0.000607376
16.50003,-0.0006059587
16.60003,-0.0006045838
16.70003,-0.0006033303
16.80003,-0.000601978
16.90003,-0.0006006153
17.00003,-0.0005992602
17.10003,-0.0005978316
17.20003,-0.0005965217
17.30003,-0.0005951768
17.40003,-0.0005937934
17.50003,-0.0005924816
17.60003,-0.0005911264
17.70003,-0.0005898202
17.80003,-0.0005885217
17.90003,-0.0005871307
18.00003,-0.0005858386
18.10003,-0.0005845089
18.20003,-0.0005831745
18.30003,-0.0005818843
18.40003,-0.0005806958
18.50003,-0.0005794151
18.60003,-0.000578188
18.70004,-0.0005770532
18.80004,-0.0005759015
18.90004,-0.0005748495
19.00004,-0.0005737807
19.10004,-0.0005725574
19.20004,-0.0005713181
19.30004,-0.0005700731
19.40004,-0.0005689129
19.50004,-0.0005677913
19.60004,-0.0005666819
19.70004,-0.0005655669
19.80004,-0.0005643897
19.90004,-0.0005632333
20.00004,-0.00056201
20.10004,-0.0005607829
20.20004,-0.0005594682
20.30004,-0.0005583307
20.40004,-0.0005571309
20.50004,-0.0005559509
20.60004,-0.000554867
20.70004,-0.0005537086
20.80004,-0.0005524919
20.90004,-0.0005514127
21.00004,-0.0005502817
21.10004,-0.000549113
21.20004,-0.000547965
21.30005,-0.0005468773
21.40005,-0.0005457689
21.50005,-0.0005446266
21.60005,-0.0005435634
21.70005,-0.0005424474
21.80005,-0.0005413587
21.90005,-0.0005403078
22.00005,-0.0005392446
22.10005,-0.0005382228
22.20005,-0.0005371143
22.30005,-0.0005360531
22.40005,-0.0005350228
22.50005,-0.0005339945
22.60005,-0.0005329275
22.70005,-0.0005319188
22.80005,-0.0005308604
22.90005,-0.0005298941
23.00005,-0.0005289307
23.10005,-0.0005279146
23.20005,-0.0005269983
23.30005,-0.0005260688
23.40005,-0.0005250706
23.50005,-0.0005241939
23.60005,-0.0005232295
23.70005,-0.0005222501
23.80005,-0.0005212877
23.90005,-0.0005203318
24.00006,-0.0005193646
24.10006,-0.0005183758
24.20006,-0.0005174558
24.30006,-0.0005165196
24.40006,-0.0005155789
24.50006,-0.0005147576
24.60006,-0.0005139534
24.70006,-0.000513007
24.80006,-0.0005122828
24.90006,-0.0005114937
25.00006,-0.0005104869
25.10006,-0.0005097279
25.20006,-0.0005088578
25.30006,-0.0005079424
25.40006,-0.0005070609
25.50006,-0.0005062915
25.60006,-0.0005054685
25.70006,-0.0005045296
25.80006,-0.0005036509
25.90006,-0.0005026677
26.00006,-0.0005017486
26.10006,-0.0005009557
26.20006,-0.0005000874
26.30006,-0.0004992192
26.40006,-0.0004983151
26.50006,-0.0004974402
26.60007,-0.0004965682
26.70007,-0.0004956923
26.80007,-0.0004948118
26.90007,-0.0004939341
27.00007,-0.0004930536
27.10007,-0.0004922239
27.20007,-0.0004913039
27.30007,-0.0004904874
27.40007,-0.0004897001
27.50007,-0.0004887923
27.60007,-0.0004879768
27.70007,-0.0004872064
27.80007,-0.0004863409
27.90007,-0.0004855414
28.00007,-0.0004847532
28.10007,-0.0004839358
28.20007,-0.0004831598
28.30007,-0.0004825175
28.40007,-0.0004817698
28.50007,-0.0004810418
28.60007,-0.0004802207
28.70007,-0.0004797422
28.80007,-0.0004788288
28.90007,-0.0004779878
29.00007,-0.0004772833
29.10007,-0.0004764913
29.20008,-0.0004756193
29.30008,-0.0004749008
29.40008,-0.0004741314
29.50008,-0.0004733093
29.60008,-0.0004725643
29.70008,-0.0004717611
29.80008,-0.000470971
29.90008,-0.0004701837
30.00008,-0.0004694115
30.10008,-0.0004687466
30.20008,-0.0004680713
30.30008,-0.0004673999
30.40008,-0.000466623
30.50008,-0.0004657971
30.60008,-0.0004651313
30.70008,-0.0004643807
30.80008,-0.0004636518
30.90008,-0.0004630491
31.00008,-0.0004623673
31.10008,-0.0004616685
31.20008,-0.0004609528
31.30008,-0.0004602597
31.40008,-0.0004595063
31.50008,-0.0004587143
31.60008,-0.0004579779
31.70008,-0.0004572282
31.80009,-0.0004564767
31.90009,-0.0004557648
32.00008,-0.0004550133
32.10008,-0.000454324
32.20008,-0.0004535856
32.30008,-0.0004529961
32.40008,-0.0004523576
32.50008,-0.0004516899
32.60007,-0.0004510175
32.70007,-0.0004503169
32.80007,-0.0004495494
32.90007,-0.0004488695
33.00007,-0.0004482037
33.10007,-0.0004474569
33.20007,-0.0004468268
33.30006,-0.0004461309
33.40006,-0.0004453568
33.50006,-0.000444723
33.60006,-0.0004441071
33.70006,-0.0004433208
33.80006,-0.0004426456
33.90005,-0.0004420551
34.00005,-0.0004414439
34.10005,-0.0004407197
34.20005,-0.0004400812
34.30005,-0.0004394079
34.40005,-0.0004386893
34.50005,-0.0004380329
34.60004,-0.0004374189
34.70004,-0.0004366863
34.80004,-0.0004361015
34.90004,-0.000435479
35.00004,-0.0004348
35.10004,-0.0004342679
35.20004,-0.0004337057
35.30003,-0.0004330182
35.40003,-0.0004323835
35.50003,-0.0004317818
35.60003,-0.0004311404
35.70003,-0.0004304501
35.80003,-0.0004298484
35.90002,-0.0004291986
36.00002,-0.0004285714
36.10002,-0.0004279668
36.20002,-0.0004274347
36.30002,-0.0004267369
36.40002,-0.0004262105
36.50002,-0.0004255701
36.60001,-0.0004248845
36.70001,-0.0004242959
36.80001,-0.0004236678
36.90001,-0.0004231385
37.00001,-0.0004225857
37.10001,-0.0004220311
37.2,-0.0004215036
37.3,-0.0004210102
37.4,-0.0004207399
37.5,-0.0004202267
37.6,-0.0004197935
37.7,-0.0004194093
37.8,-0.0004188791
37.89999,-0.0004182688
37.99999,-0.0004177377
38.09999,-0.0004171312
38.19999,-0.0004165925
38.29999,-0.0004159861
38.39999,-0.0004154738
38.49998,-0.0004148296
38.59998,-0.0004140772
38.69998,-0.0004134999
38.79998,-0.0004128643
38.89998,-0.0004122022
38.99998,-0.0004116824
39.09998,-0.0004112576
39.19997,-0.0004107388
39.29997,-0.0004101888
39.39997,-0.0004096143
39.49997,-0.000408909
39.59997,-0.000408327
39.69997,-0.0004078184
39.79996,-0.0004073579
39.89996,-0.0004067336
39.99996,-0.0004063135
40.09996,-0.0004057118
40.19996,-0.0004051223
40.29996,-0.000404771
40.39996,-0.0004042295
40.49995,-0.0004035053
40.59995,-0.0004030006
40.69995,-0.0004023046
40.79995,-0.0004016981
40.89995,-0.0004012028
40.99995,-0.0004006368
41.09995,-0.0004000576
41.19994,-0.0003995058
41.29994,-0.0003990151
41.39994,-0.0003984821
41.49994,-0.0003978832
41.59994,-0.000397401
41.69994,-0.0003968237
41.79993,-0.0003962982
41.89993,-0.0003958396
41.99993,-0.0003952623
42.09993,-0.0003947293
42.19993,-0.0003942584
42.29993,-0.0003937066
42.39993,-0.0003931689
42.49992,-0.0003926019
42.59992,-0.0003921094
42.69992,-0.0003915444
42.79992,-0.0003909681
42.89992,-0.0003905339
42.99992,-0.0003899491
43.09991,-0.0003894095
43.19991,-0.0003889688
43.29991,-0.0003884442
43.39991,-0.0003879987
43.49991,-0.0003876165
43.59991,-0.0003870985
43.69991,-0.0003865513
43.7999,-0.0003862707
43.8999,-0.0003858384
43.9999,-0.0003853337
44.0999,-0.0003848609
44.1999,-0.0003845944
44.2999,-0.000384036
44.39989,-0.000383502
44.49989,-0.0003830923
44.59989,-0.0003825744
44.69989,-0.0003820593
44.79989,-0.0003815941
44.89989,-0.0003810733
44.99989,-0.0003805318
45.09988,-0.0003800929
45.19988,-0.0003796399
45.29988,-0.0003791729
45.39988,-0.0003786634
45.49988,-0.0003782707
45.59988,-0.0003778714
45.69987,-0.000377312
45.79987,-0.0003768948
45.89987,-0.0003764729
45.99987,-0.0003759841
46.09987,-0.0003756254
46.19987,-0.00037526
46.29987,-0.0003747637
46.39986,-0.0003744058
46.49986,-0.0003739867
46.59986,-0.0003735253
46.69986,-0.0003730055
46.79986,-0.0003725223
46.89986,-0.0003720562
46.99986,-0.0003716107
47.09985,-0.0003711682
47.19985,-0.0003707613
47.29985,-0.0003702952
47.39985,-0.0003699477
47.49985,-0.0003695964
47.59985,-0.000369199
47.69984,-0.0003687441
47.79984,-0.000368327
47.89984,-0.0003678617
47.99984,-0.0003675236
48.09984,-0.0003673127
48.19984,-0.0003671742
48.29984,-0.0003670876
48.39983,-0.0003672703
48.49983,-0.0003672006
48.59983,-0.0003666686
48.69983,-0.0003661016
48.79983,-0.0003654104
48.89983,-0.0003648293
48.99982,-0.000364318
49.09982,-0.0003637878
49.19982,-0.0003632698
49.29982,-0.0003626879
49.39982,-0.0003621501
49.49982,-0.0003616162
49.59982,-0.0003611321
49.69981,-0.000360583
49.79981,-0.0003601179
49.89981,-0.0003596291
49.99981,-0.0003591027
50.09981,-0.0003586186
50.19981,-0.000358193
50.2998,-0.0003577796
50.3998,-0.0003572936
50.4998,-0.0003567813
50.5998,-0.000356382
50.6998,-0.0003559055
50.7998,-0.000355444
50.8998,-0.0003550702
50.99979,-0.0003546445
51.09979,-0.0003542669
51.19979,-0.0003539119
51.29979,-0.0003534532
51.39979,-0.0003529871
51.49979,-0.0003526518
51.59978,-0.0003522742
51.69978,-0.0003518947
51.79978,-0.0003514803
51.89978,-0.0003512195
51.99978,-0.000350774
52.09978,-0.0003503069
52.19978,-0.0003500084
52.29977,-0.0003495629
52.39977,-0.0003491081
52.49977,-0.0003487596
52.59977,-0.0003483867
52.69977,-0.0003479554
52.79977,-0.0003475947
52.89977,-0.0003472312
52.99976,-0.000346782
53.09976,-0.0003464185
53.19976,-0.0003460606
53.29976,-0.0003456548
53.39976,-0.0003452121
53.49976,-0.0003448797
53.59975,-0.0003444729
53.69975,-0.0003440453
53.79975,-0.0003437345
53.89975,-0.0003433023
53.99975,-0.0003429106
54.09975,-0.0003425904
54.19975,-0.0003421609
54.29974,-0.000341804
54.39974,-0.0003414377
54.49974,-0.0003410591
54.59974,-0.0003407239
54.69974,-0.000340285
54.79974,-0.0003399337
54.89973,-0.0003395485
54.99973,-0.0003391267
55.09973,-0.0003387999
55.19973,-0.0003384251
55.29973,-0.0003379843
55.39973,-0.0003376952
55.49973,-0.0003373082
55.59972,-0.0003368703
55.69972,-0.0003365746
55.79972,-0.0003362544
55.89972,-0.0003358127
55.99972,-0.0003354925
56.09972,-0.0003351535
56.19971,-0.0003347505
56.29971,-0.0003343653
56.39971,-0.0003340959
56.49971,-0.0003337353
56.59971,-0.0003333576
56.69971,-0.0003331015
56.79971,-0.000332705
56.8997,-0.0003323236
56.9997,-0.0003320816
57.0997,-0.00033172
57.1997,-0.0003312698
57.2997,-0.0003310711
57.3997,-0.0003306511
57.49969,-0.0003302904
57.59969,-0.0003299956
57.69969,-0.0003296557
57.79969,-0.0003293581
57.89969,-0.0003290003
57.99969,-0.0003286593
58.09969,-0.0003283664
58.19968,-0.000327986
58.29968,-0.0003276696
58.39968,-0.0003273503
58.49968,-0.0003269774
58.59968,-0.0003267005
58.69968,-0.0003263568
58.79967,-0.0003260149
58.89967,-0.000325771
58.99967,-0.000325416
59.09967,-0.0003250233
59.19967,-0.0003247427
59.29967,-0.0003243782
59.39967,-0.0003239761
59.49966,-0.0003236578
59.59966,-0.0003233442
59.69966,-0.0003229995
59.79966,-0.0003226567
59.89966,-0.0003222951
59.99966,-0.0003220145
60.09966,-0.0003216849
60.19965,-0.0003214146
60.29965,-0.0003212517
60.39965,-0.0003208759
60.49965,-0.0003205284
60.59965,-0.0003202996
60.69965,-0.0003200189
60.79964,-0.000319711
60.89964,-0.0003194595
60.99964,-0.0003191996
61.09964,-0.0003189058
61.19964,-0.0003186261
61.29964,-0.0003183549
61.39964,-0.0003180121
61.49963,-0.0003177155
61.59963,-0.0003174452
61.69963,-0.0003171495
61.79963,-0.0003168189
61.89963,-0.000316495
61.99963,-0.0003161965
62.09962,-0.0003159686
62.19962,-0.0003157312
62.29962,-0.0003154694
62.39962,-0.000315121
62.49962,-0.0003148912
62.59962,-0.0003146078
62.69962,-0.0003143601
62.79961,-0.0003141209
62.89961,-0.0003138129
62.99961,-0.0003136124
63.09961,-0.0003134692
63.19961,-0.000313214
63.29961,-0.000312955
63.3996,-0.0003127281
63.4996,-0.0003124484
63.5996,-0.0003121489
63.6996,-0.0003118033
63.7996,-0.0003114916
63.8996,-0.0003112156
63.9996,-0.000311
64.09959,-0.000310725
64.19959,-0.0003104152
64.29959,-0.0003101562
64.39959,-0.000309884
64.49959,-0.0003095959
64.59959,-0.0003092917
64.69958,-0.0003090845
64.79958,-0.0003087681
64.89958,-0.0003084121
64.99958,-0.0003082021
65.09958,-0.0003078885
65.19958,-0.0003075834
65.29958,-0.0003074704
65.39957,-0.0003071172
65.49957,-0.0003067933
65.59957,-0.0003065371
65.69957,-0.000306215
65.79957,-0.0003059344
65.89957,-0.0003056227
65.99957,-0.000305294
66.09956,-0.0003049964
66.19956,-0.0003047092
66.29956,-0.0003044427
66.39956,-0.0003041357
66.49956,-0.0003038777
66.59956,-0.0003035754
66.69955,-0.0003032373
66.79955,-0.0003029661
66.89955,-0.0003026704
66.99955,-0.0003023426
67.09955,-0.0003020272
67.19955,-0.0003017804
67.29955,-0.0003014536
67.39954,-0.0003011739
67.49954,-0.0003009734
67.59954,-0.0003007238
67.69954,-0.0003004017
67.79954,-0.0003001239
67.89954,-0.0002998301
67.99953,-0.0002995815
68.09953,-0.0002992669
68.19953,-0.0002990098
68.29953,-0.0002987189
68.39953,-0.0002984128
68.49953,-0.0002981642
68.59953,-0.0002978732
68.69952,-0.0002975445
68.79952,-0.0002973515
68.89952,-0.0002970709
68.99952,-0.0002967959
69.09952,-0.0002965096
69.19952,-0.0002962308
69.29951,-0.000295985
69.39951,-0.0002957157
69.49951,-0.0002954623
69.59951,-0.0002951855
69.69951,-0.0002948804
69.79951,-0.0002945894
69.89951,-0.0002943295
69.9995,-0.0002940488
70.0995,-0.0002937973
70.1995,-0.0002935403
70.2995,-0.0002933284
70.3995,-0.0002930478
70.4995,-0.0002927596
70.59949,-0.0002924846
70.69949,-0.0002922567
70.79949,-0.0002920109
70.89949,-0.0002917218
70.99949,-0.0002914647
71.09949,-0.0002912585
71.19949,-0.0002909185
71.29948,-0.0002906557
71.39948,-0.0002904241
71.49948,-0.0002901595
71.59948,-0.0002898694
71.69948,-0.0002896387
71.79948,-0.00028944
71.89948,-0.0002891565
71.99947,-0.0002889992
72.09947,-0.0002887864
72.19947,-0.0002885567
72.29947,-0.0002884549
72.39947,-0.0002884399
72.49947,-0.0002884399
72.59946,-0.0002883683
72.69946,-0.0002883881
72.79946,-0.0002882873
72.89946,-0.000288002
72.99946,-0.0002876733
73.09946,-0.0002875047
73.19946,-0.0002873136
73.29945,-0.0002872288
73.39945,-0.0002870875
73.49945,-0.0002868643
73.59945,-0.0002866318
73.69945,-0.0002863719
73.79945,-0.0002859735
73.89944,-0.0002856618
73.99944,-0.0002853434
74.09944,-0.0002850101
74.19944,-0.0002847304
74.29944,-0.0002844648
74.39944,-0.0002842124
74.49944,-0.0002839582
74.59943,-0.0002837632
74.69943,-0.0002835805
74.79943,-0.000283411
74.89943,-0.0002831398
74.99943,-0.0002829552
75.09943,-0.0002827801
75.19942,-0.0002825032
75.29942,-0.0002822791
75.39942,-0.0002820926
75.49942,-0.000281795
75.59942,-0.0002815059
75.69942,-0.0002812761
75.79942,-0.0002809795
75.89941,-0.0002806621
75.99941,-0.0002804323
76.09941,-0.0002801583
76.19941,-0.0002798682
76.29941,-0.0002797044
76.39941,-0.0002795481
76.4994,-0.0002793653
76.5994,-0.0002791224
76.6994,-0.0002788125
76.7994,-0.0002786251
76.8994,-0.0002783812
76.9994,-0.0002780742
77.0994,-0.0002778435
77.19939,-0.0002777022
77.29939,-0.0002774791
77.39939,-0.0002773096
77.49939,-0.0002771994
77.59939,-0.0002768829
77.69939,-0.000276607
77.79939,-0.0002764912
77.89938,-0.0002761898
77.99938,-0.0002759233
78.09938,-0.0002757971
78.19938,-0.0002755184
78.29938,-0.0002753074
78.39938,-0.0002751021
78.49937,-0.000274845
78.59937,-0.0002746614
78.69937,-0.0002744109
78.79937,-0.0002741981
78.89937,-0.0002739815
78.99937,-0.0002736895
79.09937,-0.000273456
79.19936,-0.0002732064
79.29936,-0.0002729324
79.39936,-0.0002727328
79.49936,-0.0002724907
79.59936,-0.0002723259
79.69936,-0.0002721065
79.79935,-0.0002718974
79.89935,-0.0002716611
79.99935,-0.00027142
80.09935,-0.0002711563
80.19935,-0.0002709105
80.29935,-0.0002706619
80.39935,-0.000270465
80.49934,-0.0002702286
80.59934,-0.0002699687
80.69934,-0.0002697757
80.79934,-0.0002695054
80.89934,-0.0002692832
80.99934,-0.0002691089
81.09933,-0.0002688415
81.19933,-0.0002686277
81.29933,-0.000268477
81.39933,-0.0002682802
81.49933,-0.0002681041
81.59933,-0.0002678998
81.69933,-0.0002677453
81.79932,-0.000267508
81.89932,-0.0002672528
81.99932,-0.000267087
82.09932,-0.0002668591
82.19932,-0.000266651
82.29932,-0.0002664778
82.39931,-0.0002662677
82.49931,-0.0002660304
82.59931,-0.0002658326
82.69931,-0.0002656368
82.79931,-0.0002654456
82.89931,-0.0002652243
82.99931,-0.0002650275
83.0993,-0.0002648165
83.1993,-0.0002645773
83.2993,-0.0002644558
83.3993,-0.0002642214
83.4993,-0.0002640613
83.5993,-0.0002640245
83.6993,-0.0002638079
83.79929,-0.000263532
83.89929,-0.0002633832
83.99929,-0.0002631506
84.09929,-0.0002628964
84.19929,-0.0002626637
84.29929,-0.0002624471
84.39928,-0.0002622748
84.49928,-0.0002620262
84.59928,-0.0002618868
84.69928,-0.0002616966
84.79928,-0.000261495
84.89928,-0.0002613839
84.99928,-0.0002612219
85.09927,-0.0002609686
85.19927,-0.0002607501
85.29927,-0.0002605769
85.39927,-0.0002603951
85.49927,-0.0002601578
85.59927,-0.0002600099
85.69926,-0.0002598131
85.79926,-0.0002596558
85.89926,-0.000259524
85.99926,-0.0002594656
86.09926,-0.0002592904
86.19926,-0.0002590616
86.29926,-0.0002588611
86.39925,-0.0002587377
86.49925,-0.0002585276
86.59925,-0.0002583544
86.69925,-0.0002581707
86.79925,-0.0002580144
86.89925,-0.0002577818
86.99924,-0.0002575482
87.09924,-0.0002573477
87.19924,-0.0002571084
87.29924,-0.0002568787
87.39924,-0.0002566621
87.49924,-0.0002564935
87.59924,-0.0002562562
87.69923,-0.0002560424
87.79923,-0.0002559332
87.89923,-0.0002556563
87.99923,-0.0002554039
88.09923,-0.000255273
