EXPID. 0387
[电化学]: i-t : @ 0(V) X 600(sec)
起始电位 (V),0
静置时间 (秒),0
运行时间 (秒),600
记录间隔,0.1
电解液 信息:
HNO3,0.4
0.1,-0.01005814
0.2,-0.01005814
0.3,-0.01005814
0.4,-0.01005814
0.5,-0.01005814
0.6,0.002677001
0.7,0.003408277
0.8000001,0.0001400112
0.9000001,-0.002578731
1,-0.003658594
1.1,-0.003846719
1.2,-0.003813251
1.3,-0.003753384
1.4,-0.003670177
1.5,-0.00356511
1.6,-0.003444426
1.7,-0.003318714
1.8,-0.003203841
1.9,-0.003102417
2,-0.003010152
2.1,-0.002922733
2.2,-0.002842007
2.3,-0.002767415
2.4,-0.002689721
2.5,-0.002611395
2.6,-0.002525097
2.7,-0.002430199
2.799999,-0.002326503
2.899999,-0.002234583
2.999999,-0.002148763
3.099999,-0.002072023
3.199999,-0.00200496
3.299999,-0.001944097
3.399999,-0.001892154
3.499999,-0.001845024
3.599999,-0.001802593
3.699999,-0.001765336
3.799999,-0.001729148
3.899998,-0.001698812
3.999998,-0.001668473
4.099998,-0.001640802
4.199998,-0.001616419
4.299998,-0.001591894
4.399998,-0.001568301
4.499998,-0.001546976
4.599998,-0.001526197
4.699998,-0.001507266
4.799998,-0.0014888
4.899998,-0.001471406
4.999998,-0.001455632
5.099998,-0.001439679
5.199997,-0.001425711
5.299997,-0.001411341
5.399997,-0.001397401
5.499997,-0.001385315
5.599997,-0.001372636
5.699997,-0.001360648
5.799997,-0.001349078
5.899997,-0.001337596
5.999997,-0.001325883
6.099997,-0.00131501
6.199996,-0.001303816
6.299996,-0.00129374
6.399996,-0.001283161
6.499996,-0.001273822
6.599996,-0.001264365
6.699996,-0.001255017
6.799996,-0.001246468
6.899996,-0.001238011
6.999996,-0.00122942
7.099996,-0.001221405
7.199996,-0.001213324
7.299995,-0.00120547
7.399995,-0.001198085
7.499995,-0.00119017
7.599995,-0.001182987
7.699995,-0.001176059
7.799995,-0.001168852
7.899995,-0.001162243
7.999995,-0.001155673
8.099995,-0.001149277
8.199995,-0.001142999
8.299995,-0.001136909
8.399996,-0.001131057
8.499996,-0.001124861
8.599997,-0.001118877
8.699997,-0.001113478
8.799997,-0.00110764
8.899998,-0.001102168
8.999998,-0.001096736
9.099998,-0.001091431
9.199999,-0.001086176
9.299999,-0.001080937
9.4,-0.001076111
9.5,-0.001070887
9.6,-0.001066057
9.700001,-0.001061473
9.800001,-0.001056704
9.900002,-0.001051956
10,-0.001047538
10.1,-0.001042992
10.2,-0.001038483
10.3,-0.001034039
10.4,-0.001029749
10.5,-0.001025323
10.6,-0.001021195
10.7,-0.001017458
10.8,-0.001013092
10.90001,-0.001009296
11.00001,-0.001005379
11.10001,-0.001001537
11.20001,-0.0009976776
11.30001,-0.0009940038
11.40001,-0.0009905213
11.50001,-0.0009866169
11.60001,-0.00098356
11.70001,-0.0009798741
11.80001,-0.0009764415
11.90001,-0.0009732905
12.00001,-0.000969968
12.10001,-0.0009663621
12.20001,-0.0009631716
12.30001,-0.0009597936
12.40001,-0.0009565795
12.50001,-0.0009532853
12.60001,-0.0009499968
12.70001,-0.0009467685
12.80001,-0.0009436061
12.90001,-0.000940538
13.00001,-0.0009373342
13.10001,-0.0009341427
13.20001,-0.0009313768
13.30001,-0.0009281401
13.40001,-0.0009251944
13.50002,-0.0009223532
13.60002,-0.0009192794
13.70002,-0.0009164033
13.80002,-0.0009138145
13.90002,-0.0009108357
14.00002,-0.000908051
14.10002,-0.0009052099
14.20002,-0.0009025985
14.30002,-0.0008999513
14.40002,-0.0008971345
14.50002,-0.000894735
14.60002,-0.000892035
14.70002,-0.0008893257
14.80002,-0.000887026
14.90002,-0.0008844192
15.00002,-0.0008817278
15.10002,-0.0008792388
15.20002,-0.0008766189
15.30002,-0.0008741083
15.40002,-0.0008715929
15.50002,-0.0008690954
15.60002,-0.0008667278
15.70002,-0.0008642229
15.80002,-0.0008618874
15.90002,-0.0008595368
16.00002,-0.000857077
16.10003,-0.0008547519
16.20003,-0.0008525003
16.30003,-0.0008501157
16.40003,-0.0008478104
16.50003,-0.0008456096
16.60003,-0.0008433221
16.70003,-0.000841061
16.80003,-0.0008390664
16.90003,-0.0008367818
17.00003,-0.0008345357
17.10003,-0.0008324508
17.20003,-0.000830216
17.30003,-0.0008279973
17.40003,-0.0008260225
17.50003,-0.000823833
17.60003,-0.0008216886
17.70003,-0.0008196762
17.80003,-0.0008175856
17.90003,-0.0008154751
18.00003,-0.0008135323
18.10003,-0.0008114765
18.20003,-0.0008093548
18.30003,-0.0008074882
18.40003,-0.0008054683
18.50003,-0.0008033814
18.60003,-0.0008015112
18.70004,-0.0007995674
18.80004,-0.0007974758
18.90004,-0.0007956931
19.00004,-0.000793676
19.10004,-0.0007917387
19.20004,-0.0007898883
19.30004,-0.0007881348
19.40004,-0.0007860912
19.50004,-0.000784413
19.60004,-0.000782555
19.70004,-0.0007806904
19.80004,-0.0007788719
19.90004,-0.0007772305
20.00004,-0.0007755467
20.10004,-0.0007737366
20.20004,-0.0007722629
20.30004,-0.0007704227
20.40004,-0.0007686833
20.50004,-0.0007670239
20.60004,-0.0007653109
20.70004,-0.0007635358
20.80004,-0.0007618114
20.90004,-0.0007600609
21.00004,-0.000758441
21.10004,-0.0007566659
21.20004,-0.0007551544
21.30005,-0.0007537041
21.40005,-0.0007519515
21.50005,-0.0007503281
21.60005,-0.0007486866
21.70005,-0.0007470151
21.80005,-0.0007454132
21.90005,-0.0007437961
22.00005,-0.0007422197
22.10005,-0.0007406385
22.20005,-0.0007388964
22.30005,-0.0007374291
22.40005,-0.0007358593
22.50005,-0.0007342442
22.60005,-0.0007327836
22.70005,-0.0007311713
22.80005,-0.0007297276
22.90005,-0.000728251
23.00005,-0.0007266209
23.10005,-0.0007251046
23.20005,-0.0007236167
23.30005,-0.0007220958
23.40005,-0.0007205835
23.50005,-0.0007190842
23.60005,-0.0007176133
23.70005,-0.0007160631
23.80005,-0.0007145686
23.90005,-0.0007132106
24.00006,-0.0007117877
24.10006,-0.0007103742
24.20006,-0.000709035
24.30006,-0.0007075942
24.40006,-0.0007062691
24.50006,-0.0007049131
24.60006,-0.0007033939
24.70006,-0.0007021566
24.80006,-0.0007007459
24.90006,-0.0006992071
25.00006,-0.0006979216
25.10006,-0.0006966512
25.20006,-0.0006951313
25.30006,-0.0006938147
25.40006,-0.0006924954
25.50006,-0.0006910894
25.60006,-0.0006896937
25.70006,-0.0006884421
25.80006,-0.0006869947
25.90006,-0.000685762
26.00006,-0.0006844002
26.10006,-0.0006830621
26.20006,-0.0006817408
26.30006,-0.0006804826
26.40006,-0.000679168
26.50006,-0.0006778213
26.60007,-0.000676662
26.70007,-0.0006753511
26.80007,-0.0006739923
26.90007,-0.000672816
27.00007,-0.0006715352
27.10007,-0.0006701904
27.20007,-0.0006690434
27.30007,-0.0006676977
27.40007,-0.0006664612
27.50007,-0.0006652567
27.60007,-0.0006639853
27.70007,-0.0006627263
27.80007,-0.0006615218
27.90007,-0.0006602627
28.00007,-0.0006591326
28.10007,-0.0006579375
28.20007,-0.000656655
28.30007,-0.0006555305
28.40007,-0.0006542997
28.50007,-0.0006530547
28.60007,-0.0006518644
28.70007,-0.0006506956
28.80007,-0.000649526
28.90007,-0.0006484403
29.00007,-0.0006473007
29.10007,-0.0006460915
29.20008,-0.0006449954
29.30008,-0.0006438154
29.40008,-0.0006426505
29.50008,-0.0006415383
29.60008,-0.0006403206
29.70008,-0.0006391378
29.80008,-0.0006380068
29.90008,-0.0006368014
30.00008,-0.0006356572
30.10008,-0.0006345751
30.20008,-0.0006334309
30.30008,-0.0006322406
30.40008,-0.000631152
30.50008,-0.000630068
30.60008,-0.0006288937
30.70008,-0.000627805
30.80008,-0.0006266985
30.90008,-0.0006255627
31.00008,-0.0006244901
31.10008,-0.0006233563
31.20008,-0.0006222347
31.30008,-0.0006212845
31.40008,-0.0006202259
31.50008,-0.0006190431
31.60008,-0.0006179874
31.70008,-0.0006169797
31.80009,-0.0006159439
31.90009,-0.000614957
32.00008,-0.0006139474
32.10008,-0.0006129012
32.20008,-0.0006117937
32.30008,-0.0006108877
32.40008,-0.0006098603
32.50008,-0.0006086944
32.60007,-0.000607748
32.70007,-0.0006067206
32.80007,-0.0006055933
32.90007,-0.0006046469
33.00007,-0.0006036713
33.10007,-0.0006025883
33.20007,-0.0006015835
33.30006,-0.0006005654
33.40006,-0.0005995315
33.50006,-0.0005984691
33.60006,-0.0005975915
33.70006,-0.0005965499
33.80006,-0.0005955582
33.90005,-0.0005945911
34.00005,-0.0005935156
34.10005,-0.0005925579
34.20005,-0.0005915643
34.30005,-0.000590535
34.40005,-0.0005895962
34.50005,-0.0005886064
34.60004,-0.0005876486
34.70004,-0.0005866635
34.80004,-0.0005856956
34.90004,-0.0005847358
35.00004,-0.0005837292
35.10004,-0.0005827874
35.20004,-0.0005818183
35.30003,-0.0005808682
35.40003,-0.00057995
35.50003,-0.0005790242
35.60003,-0.0005781117
35.70003,-0.00057717
35.80003,-0.000576281
35.90002,-0.0005753581
36.00002,-0.0005744004
36.10002,-0.0005734747
36.20002,-0.0005726111
36.30002,-0.0005716618
36.40002,-0.0005706975
36.50002,-0.0005698245
36.60001,-0.000568926
36.70001,-0.0005679589
36.80001,-0.0005671066
36.90001,-0.0005662016
37.00001,-0.0005652807
37.10001,-0.00056437
37.2,-0.0005634706
37.3,-0.0005625723
37.4,-0.0005616748
37.5,-0.0005607537
37.6,-0.0005598431
37.7,-0.0005589447
37.8,-0.0005580736
37.89999,-0.0005572703
37.99999,-0.0005563333
38.09999,-0.0005554979
38.19999,-0.0005546805
38.29999,-0.0005537717
38.39999,-0.0005529345
38.49998,-0.000552022
38.59998,-0.0005512366
38.69998,-0.000550373
38.79998,-0.0005494831
38.89998,-0.0005486497
38.99998,-0.0005478162
39.09998,-0.0005469404
39.19997,-0.0005461993
39.29997,-0.0005453508
39.39997,-0.0005445211
39.49997,-0.0005437008
39.59997,-0.0005428835
39.69997,-0.000542066
39.79996,-0.0005413465
39.89996,-0.0005405583
39.99996,-0.0005397428
40.09996,-0.0005389282
40.19996,-0.0005383019
40.29996,-0.0005373696
40.39996,-0.0005364486
40.49995,-0.0005356641
40.59995,-0.0005348166
40.69995,-0.0005339351
40.79995,-0.0005331299
40.89995,-0.0005323775
40.99995,-0.0005314847
41.09995,-0.0005306974
41.19994,-0.0005300363
41.29994,-0.0005292236
41.39994,-0.0005283224
41.49994,-0.0005275295
41.59994,-0.0005267854
41.69994,-0.0005259304
41.79993,-0.00052513
41.89993,-0.0005243474
41.99993,-0.0005235214
42.09993,-0.0005227568
42.19993,-0.0005219186
42.29993,-0.0005211219
42.39993,-0.000520522
42.49992,-0.0005198082
42.59992,-0.0005188787
42.69992,-0.000518082
42.79992,-0.0005173446
42.89992,-0.0005166232
42.99992,-0.0005158284
43.09991,-0.0005151485
43.19991,-0.0005143951
43.29991,-0.0005135824
43.39991,-0.0005128846
43.49991,-0.0005121076
43.59991,-0.0005112714
43.69991,-0.0005105718
43.7999,-0.0005098014
43.8999,-0.0005090678
43.9999,-0.000508337
44.0999,-0.0005075958
44.1999,-0.0005068264
44.2999,-0.0005060768
44.39989,-0.0005053771
44.49989,-0.0005045634
44.59989,-0.0005039118
44.69989,-0.0005031707
44.79989,-0.0005024389
44.89989,-0.0005017034
44.99989,-0.0005009868
45.09988,-0.0005002852
45.19988,-0.0004994932
45.29988,-0.0004988679
45.39988,-0.0004981484
45.49988,-0.0004973771
45.59988,-0.0004966595
45.69987,-0.0004960182
45.79987,-0.0004952686
45.89987,-0.0004945312
45.99987,-0.0004938192
46.09987,-0.0004930772
46.19987,-0.0004924
46.29987,-0.0004916853
46.39986,-0.0004909601
46.49986,-0.0004902821
46.59986,-0.0004896219
46.69986,-0.0004888554
46.79986,-0.0004881651
46.89986,-0.0004875586
46.99986,-0.0004867836
47.09985,-0.0004861055
47.19985,-0.0004854793
47.29985,-0.0004848332
47.39985,-0.0004841166
47.49985,-0.0004835045
47.59985,-0.0004827595
47.69984,-0.0004820184
47.79984,-0.0004812933
47.89984,-0.0004806632
47.99984,-0.000479939
48.09984,-0.0004792667
48.19984,-0.0004785688
48.29984,-0.0004778936
48.39983,-0.0004772457
48.49983,-0.0004766251
48.59983,-0.0004759339
48.69983,-0.0004752332
48.79983,-0.0004746032
48.89983,-0.0004739167
48.99982,-0.0004732207
49.09982,-0.0004726124
49.19982,-0.0004719296
49.29982,-0.0004712393
49.39982,-0.0004706724
49.49982,-0.0004700358
49.59982,-0.000469289
49.69981,-0.0004687268
49.79981,-0.0004680865
49.89981,-0.0004674084
49.99981,-0.0004667614
50.09981,-0.0004661615
50.19981,-0.0004654976
50.2998,-0.0004647696
50.3998,-0.0004642102
50.4998,-0.0004635953
50.5998,-0.000462921
50.6998,-0.0004623343
50.7998,-0.0004617617
50.8998,-0.0004611402
50.99979,-0.0004605695
51.09979,-0.0004598971
51.19979,-0.0004592737
51.29979,-0.0004587322
51.39979,-0.0004581248
51.49979,-0.0004574806
51.59978,-0.0004568695
51.69978,-0.0004562969
51.79978,-0.0004556659
51.89978,-0.0004549342
51.99978,-0.0004544219
52.09978,-0.0004537712
52.19978,-0.0004531496
52.29977,-0.0004526166
52.39977,-0.0004520836
52.49977,-0.0004513829
52.59977,-0.0004509469
52.69977,-0.0004503565
52.79977,-0.0004496991
52.89977,-0.0004491284
52.99976,-0.0004485116
53.09976,-0.0004478816
53.19976,-0.0004473146
53.29976,-0.000446808
53.39976,-0.0004461686
53.49976,-0.0004455772
53.59975,-0.0004450018
53.69975,-0.0004443492
53.79975,-0.000443738
53.89975,-0.0004431654
53.99975,-0.0004425872
54.09975,-0.0004420937
54.19975,-0.0004416624
54.29974,-0.0004411284
54.39974,-0.0004406029
54.49974,-0.0004400191
54.59974,-0.000439423
54.69974,-0.0004388325
54.79974,-0.0004382458
54.89973,-0.0004377071
54.99973,-0.0004371007
55.09973,-0.000436497
55.19973,-0.0004359536
55.29973,-0.0004353584
55.39973,-0.0004347115
55.49973,-0.0004342406
55.59972,-0.0004337566
55.69972,-0.0004331868
55.79972,-0.0004326434
55.89972,-0.0004320897
55.99972,-0.0004315246
56.09972,-0.0004309248
56.19971,-0.0004303663
56.29971,-0.0004297335
56.39971,-0.0004292042
56.49971,-0.0004286609
56.59971,-0.0004280901
56.69971,-0.0004274677
56.79971,-0.0004269893
56.8997,-0.0004264675
56.9997,-0.0004258112
57.0997,-0.000425232
57.1997,-0.000424698
57.2997,-0.0004240718
57.3997,-0.0004235482
57.49969,-0.0004230227
57.59969,-0.0004224284
57.69969,-0.0004218963
57.79969,-0.0004213954
57.89969,-0.0004207842
57.99969,-0.0004202681
58.09969,-0.0004197323
58.19968,-0.0004191588
58.29968,-0.0004185881
58.39968,-0.0004180588
58.49968,-0.0004175427
58.59968,-0.0004169212
58.69968,-0.0004164202
58.79967,-0.0004158768
58.89967,-0.0004153071
58.99967,-0.0004148061
59.09967,-0.0004142693
59.19967,-0.000413725
59.29967,-0.000413305
59.39967,-0.0004127531
59.49966,-0.0004121862
59.59966,-0.0004117069
59.69966,-0.0004112162
59.79966,-0.000410638
59.89966,-0.0004101172
59.99966,-0.0004095908
60.09966,-0.0004090681
60.19965,-0.0004085765
60.29965,-0.0004080454
60.39965,-0.0004074954
60.49965,-0.0004070227
60.59965,-0.0004065415
60.69965,-0.0004059887
60.79964,-0.0004054999
60.89964,-0.0004050149
60.99964,-0.0004044866
61.09964,-0.0004039395
61.19964,-0.0004035185
61.29964,-0.0004029243
61.39964,-0.0004023282
61.49963,-0.0004018431
61.59963,-0.0004013572
61.69963,-0.0004008129
61.79963,-0.000400311
61.89963,-0.0003998392
61.99963,-0.0003993203
62.09962,-0.0003988485
62.19962,-0.0003983512
62.29962,-0.0003978031
62.39962,-0.0003973106
62.49962,-0.0003968115
62.59962,-0.000396335
62.69962,-0.0003958509
62.79961,-0.0003953678
62.89961,-0.0003948706
62.99961,-0.0003943677
63.09961,-0.0003938931
63.19961,-0.0003933902
63.29961,-0.0003928675
63.3996,-0.0003924334
63.4996,-0.0003919032
63.5996,-0.0003913928
63.6996,-0.0003909812
63.7996,-0.0003905094
63.8996,-0.0003899613
63.9996,-0.0003894538
64.09959,-0.0003889942
64.19959,-0.0003885365
64.29959,-0.000388092
64.39959,-0.0003878076
64.49959,-0.0003873169
64.59959,-0.0003867849
64.69958,-0.0003864393
64.79958,-0.000385877
64.89958,-0.0003852988
64.99958,-0.0003848468
65.09958,-0.0003843552
65.19958,-0.0003838486
65.29958,-0.0003834059
65.39957,-0.0003829389
65.49957,-0.0003824463
65.59957,-0.0003820386
65.69957,-0.0003815639
65.79957,-0.0003810667
65.89957,-0.0003805977
65.99957,-0.0003801871
66.09956,-0.0003797068
66.19956,-0.0003792237
66.29956,-0.0003788386
66.39956,-0.0003783705
66.49956,-0.000377862
66.59956,-0.0003774665
66.69955,-0.0003769927
66.79955,-0.0003764851
66.89955,-0.0003760595
66.99955,-0.0003755839
67.09955,-0.0003751404
67.19955,-0.0003747806
67.29955,-0.0003743267
67.39954,-0.0003739867
67.49954,-0.0003735705
67.59954,-0.000373078
67.69954,-0.0003725977
67.79954,-0.0003721447
67.89954,-0.0003717463
67.99953,-0.0003712567
68.09953,-0.0003708244
68.19953,-0.0003705033
68.29953,-0.0003700277
68.39953,-0.0003694984
68.49953,-0.0003691773
68.59953,-0.0003686763
68.69952,-0.0003681753
68.79952,-0.0003677544
68.89952,-0.0003673146
68.99952,-0.0003668239
69.09952,-0.0003663766
69.19952,-0.000365966
69.29951,-0.0003655206
69.39951,-0.0003650968
69.49951,-0.0003647484
69.59951,-0.0003643425
69.69951,-0.0003638236
69.79951,-0.0003634478
69.89951,-0.0003630758
69.9995,-0.0003627029
70.0995,-0.0003629563
70.1995,-0.0003626982
70.2995,-0.0003623865
70.3995,-0.0003627236
70.4995,-0.0003629129
70.59949,-0.0003623413
70.69949,-0.0003619618
70.79949,-0.0003620362
70.89949,-0.0003614212
70.99949,-0.0003607206
71.09949,-0.0003602667
71.19949,-0.0003595952
71.29948,-0.0003589106
71.39948,-0.0003583728
71.49948,-0.0003578483
71.59948,-0.000357319
71.69948,-0.0003568293
71.79948,-0.0003562615
71.89948,-0.0003558706
71.99947,-0.0003554196
72.09947,-0.0003550109
72.19947,-0.0003544505
72.29947,-0.0003539495
72.39947,-0.0003535455
72.49947,-0.0003530454
72.59946,-0.0003525548
72.69946,-0.0003523665
72.79946,-0.000352002
72.89946,-0.0003514935
72.99946,-0.0003510396
73.09946,-0.0003506572
73.19946,-0.0003502127
73.29945,-0.0003497466
73.39945,-0.0003492814
73.49945,-0.000348818
73.59945,-0.0003483867
73.69945,-0.0003480044
73.79945,-0.0003475712
73.89944,-0.0003471079
73.99944,-0.0003467067
74.09944,-0.0003462763
74.19944,-0.0003458563
74.29944,-0.0003454843
74.39944,-0.0003450718
74.49944,-0.0003446348
74.59943,-0.0003442534
74.69943,-0.0003438862
74.79943,-0.0003434859
74.89943,-0.0003430716
74.99943,-0.0003427119
75.09943,-0.0003422984
75.19942,-0.0003419293
75.29942,-0.0003415611
75.39942,-0.0003411429
75.49942,-0.0003407229
75.59942,-0.0003403613
75.69942,-0.0003399083
75.79942,-0.0003395024
75.89941,-0.0003391229
75.99941,-0.0003387255
76.09941,-0.0003382725
76.19941,-0.000337957
76.29941,-0.0003375869
76.39941,-0.000337182
76.4994,-0.0003367818
76.5994,-0.000336438
76.6994,-0.0003360039
76.7994,-0.0003356319
76.8994,-0.0003352486
76.9994,-0.0003348474
77.0994,-0.0003344576
77.19939,-0.0003341082
77.29939,-0.0003337607
77.39939,-0.0003333585
77.49939,-0.0003330082
77.59939,-0.0003325797
77.69939,-0.0003322492
77.79939,-0.0003319846
77.89938,-0.0003315495
77.99938,-0.0003311323
78.09938,-0.0003309063
78.19938,-0.0003303686
78.29938,-0.0003299392
78.39938,-0.000329635
78.49937,-0.0003292329
78.59937,-0.0003288533
78.69937,-0.0003285228
78.79937,-0.0003282111
78.89937,-0.0003277958
78.99937,-0.0003274012
79.09937,-0.0003271026
79.19936,-0.0003266619
79.29936,-0.0003262306
79.39936,-0.0003259377
79.49936,-0.0003255714
79.59936,-0.0003251777
79.69936,-0.00032485
79.79935,-0.0003244272
79.89935,-0.0003240439
79.99935,-0.000323768
80.09935,-0.0003233414
80.19935,-0.0003229487
80.29935,-0.0003225927
80.39935,-0.0003222914
80.49934,-0.000321941
80.59934,-0.0003216227
80.69934,-0.0003213741
80.79934,-0.0003209456
80.89934,-0.0003205576
80.99934,-0.0003202817
81.09933,-0.0003198438
81.19933,-0.0003193965
81.29933,-0.0003191073
81.39933,-0.0003187683
81.49933,-0.0003183775
81.59933,-0.0003180017
81.69933,-0.0003176646
81.79932,-0.0003173096
81.89932,-0.0003169216
81.99932,-0.0003166551
82.09932,-0.0003162643
82.19932,-0.0003158904
82.29932,-0.0003157133
82.39931,-0.0003153621
82.49931,-0.0003148865
82.59931,-0.0003145333
82.69931,-0.0003142179
82.79931,-0.0003138534
82.89931,-0.0003135182
82.99931,-0.0003132196
83.0993,-0.0003128561
83.1993,-0.0003125566
83.2993,-0.0003122506
83.3993,-0.0003118833
83.4993,-0.0003115255
83.5993,-0.0003112429
83.6993,-0.0003108841
83.79929,-0.0003104557
83.89929,-0.0003101835
83.99929,-0.0003098228
84.09929,-0.0003094377
84.19929,-0.0003091796
84.29929,-0.0003088698
84.39928,-0.0003084573
84.49928,-0.0003081588
84.59928,-0.0003078546
84.69928,-0.0003074591
84.79928,-0.0003070711
84.89928,-0.000306749
84.99928,-0.0003064467
85.09927,-0.0003060973
85.19927,-0.0003057282
85.29927,-0.0003053816
85.39927,-0.0003050567
85.49927,-0.0003047516
85.59927,-0.0003044606
85.69926,-0.0003041254
85.79926,-0.0003038645
85.89926,-0.0003035387
85.99926,-0.0003030961
86.09926,-0.0003028031
86.19926,-0.0003025131
86.29926,-0.0003020696
86.39925,-0.000301739
86.49925,-0.0003014179
86.59925,-0.0003010572
86.69925,-0.0003007304
86.79925,-0.0003004441
86.89925,-0.0003000561
86.99924,-0.0002997359
87.09924,-0.0002994562
87.19924,-0.0002991361
87.29924,-0.0002988243
87.39924,-0.0002985842
87.49924,-0.0002982584
87.59924,-0.000297859
87.69923,-0.0002975134
87.79923,-0.0002972243
87.89923,-0.0002968891
87.99923,-0.000296664
88.09923,-0.0002963184
88.19923,-0.0002960246
88.29922,-0.0002959294
88.39922,-0.0002956215
88.49922,-0.0002952655
