EXPID. 0377
[电化学]: i-t : @ 0(V) X 600(sec)
起始电位 (V),0
静置时间 (秒),0
运行时间 (秒),600
记录间隔,0.1
电解液 信息:
HNO3,0.4
0.1,-0.01005814
0.2,-0.01005814
0.3,-0.01005814
0.4,-0.01005814
0.5,-0.01005814
0.6,-0.01005814
0.7,-0.01005814
0.8000001,-0.006980693
0.9000001,0.000671047
1,-0.0007675061
1.1,-0.003135945
1.2,-0.004123933
1.3,-0.004302029
1.4,-0.004334808
1.5,-0.004340285
1.6,-0.004307389
1.7,-0.004241645
1.8,-0.004145338
1.9,-0.004039564
2,-0.003946763
2.1,-0.00384708
2.2,-0.003754173
2.3,-0.003670096
2.4,-0.003587994
2.5,-0.003507734
2.6,-0.003433887
2.7,-0.00336415
2.799999,-0.00329137
2.899999,-0.003210339
2.999999,-0.003122457
3.099999,-0.003029136
3.199999,-0.002942746
3.299999,-0.002863212
3.399999,-0.002792943
3.499999,-0.00272572
3.599999,-0.002656756
3.699999,-0.002596846
3.799999,-0.002530192
3.899998,-0.002457656
3.999998,-0.002365135
4.099998,-0.002271765
4.199998,-0.002183469
4.299998,-0.002105973
4.399998,-0.002039904
4.499998,-0.001980116
4.599998,-0.001927713
4.699998,-0.001881408
4.799998,-0.001838269
4.899998,-0.001801037
4.999998,-0.001764305
5.099998,-0.001731415
5.199997,-0.001702823
5.299997,-0.001674596
5.399997,-0.001648168
5.499997,-0.00162431
5.599997,-0.001601172
5.699997,-0.001578899
5.799997,-0.001558719
5.899997,-0.00153923
5.999997,-0.001520798
6.099997,-0.001503158
6.199996,-0.00148644
6.299996,-0.001470267
6.399996,-0.001455124
6.499996,-0.001440064
6.599996,-0.001426266
6.699996,-0.001411975
6.799996,-0.001399541
6.899996,-0.001386496
6.999996,-0.001374458
7.099996,-0.001363192
7.199996,-0.001351659
7.299995,-0.001340952
7.399995,-0.001330501
7.499995,-0.001320239
7.599995,-0.001310231
7.699995,-0.001299975
7.799995,-0.001290665
7.899995,-0.001280928
7.999995,-0.001271836
8.099995,-0.001263186
8.199995,-0.001254516
8.299995,-0.001245535
8.399996,-0.001237464
8.499996,-0.001229228
8.599997,-0.001220902
8.699997,-0.001213227
8.799997,-0.001205503
8.899998,-0.00119784
8.999998,-0.001190573
9.099998,-0.001183268
9.199999,-0.001176199
9.299999,-0.001169239
9.4,-0.001162461
9.5,-0.001156042
9.6,-0.00114969
9.700001,-0.001143183
9.800001,-0.001136858
9.900002,-0.001130677
10,-0.001124847
10.1,-0.001118611
10.2,-0.001112808
10.3,-0.001107191
10.4,-0.001101396
10.5,-0.001095802
10.6,-0.001090487
10.7,-0.001085004
10.8,-0.001079661
10.90001,-0.001074474
11.00001,-0.001069397
11.10001,-0.001064383
11.20001,-0.001059618
11.30001,-0.001054649
11.40001,-0.001049803
11.50001,-0.001045091
11.60001,-0.001040372
11.70001,-0.001035772
11.80001,-0.001031196
11.90001,-0.001026626
12.00001,-0.001022152
12.10001,-0.001017907
12.20001,-0.001013593
12.30001,-0.001009338
12.40001,-0.001005324
12.50001,-0.001000951
12.60001,-0.0009969185
12.70001,-0.0009928729
12.80001,-0.0009887104
12.90001,-0.0009845865
13.00001,-0.000980749
13.10001,-0.0009767484
13.20001,-0.0009730899
13.30001,-0.0009691874
13.40001,-0.0009655231
13.50002,-0.0009617938
13.60002,-0.0009580881
13.70002,-0.0009547214
13.80002,-0.0009510204
13.90002,-0.0009474211
14.00002,-0.0009440478
14.10002,-0.0009406878
14.20002,-0.0009372937
14.30002,-0.0009338988
14.40002,-0.0009305368
14.50002,-0.0009272549
14.60002,-0.0009238298
14.70002,-0.00092053
14.80002,-0.0009173591
14.90002,-0.0009139774
15.00002,-0.0009108763
15.10002,-0.000907714
15.20002,-0.0009044631
15.30002,-0.0009013262
15.40002,-0.0008982759
15.50002,-0.0008951852
15.60002,-0.0008921452
15.70002,-0.0008890865
15.80002,-0.0008861982
15.90002,-0.0008831714
16.00002,-0.0008801947
16.10003,-0.0008773393
16.20003,-0.0008744463
16.30003,-0.0008714271
16.40003,-0.0008687592
16.50003,-0.0008658662
16.60003,-0.0008630467
16.70003,-0.0008603835
16.80003,-0.0008575894
16.90003,-0.0008550551
17.00003,-0.0008524635
17.10003,-0.0008502656
17.20003,-0.0008477548
17.30003,-0.0008452593
17.40003,-0.0008432524
17.50003,-0.0008407964
17.60003,-0.0008380861
17.70003,-0.0008356338
17.80003,-0.0008329932
17.90003,-0.0008302726
18.00003,-0.0008277317
18.10003,-0.0008251392
18.20003,-0.0008226765
18.30003,-0.0008202261
18.40003,-0.0008178831
18.50003,-0.0008153301
18.60003,-0.0008129023
18.70004,-0.0008105875
18.80004,-0.0008081645
18.90004,-0.0008057198
19.00004,-0.0008034426
19.10004,-0.0008010553
19.20004,-0.0007987585
19.30004,-0.0007964682
19.40004,-0.0007941336
19.50004,-0.0007918894
19.60004,-0.0007896076
19.70004,-0.0007873663
19.80004,-0.0007852521
19.90004,-0.0007829863
20.00004,-0.0007809315
20.10004,-0.0007787833
20.20004,-0.0007766249
20.30004,-0.0007746191
20.40004,-0.0007724653
20.50004,-0.000770402
20.60004,-0.0007684177
20.70004,-0.0007663403
20.80004,-0.0007643175
20.90004,-0.0007621769
21.00004,-0.0007601672
21.10004,-0.0007581096
21.20004,-0.0007560425
21.30005,-0.0007542532
21.40005,-0.0007522925
21.50005,-0.0007503195
21.60005,-0.0007483494
21.70005,-0.0007464867
21.80005,-0.0007445109
21.90005,-0.0007426181
22.00005,-0.0007407196
22.10005,-0.0007387815
22.20005,-0.0007368866
22.30005,-0.0007350767
22.40005,-0.0007332422
22.50005,-0.0007313484
22.60005,-0.0007295497
22.70005,-0.0007276681
22.80005,-0.0007258401
22.90005,-0.0007240264
23.00005,-0.0007221929
23.10005,-0.0007203621
23.20005,-0.000718587
23.30005,-0.0007167195
23.40005,-0.0007149698
23.50005,-0.0007131532
23.60005,-0.0007114167
23.70005,-0.0007097112
23.80005,-0.000707871
23.90005,-0.0007062164
24.00006,-0.000704558
24.10006,-0.0007028083
24.20006,-0.0007011725
24.30006,-0.0006994726
24.40006,-0.0006977936
24.50006,-0.0006962218
24.60006,-0.0006945276
24.70006,-0.000692969
24.80006,-0.0006912466
24.90006,-0.0006897257
25.00006,-0.0006881879
25.10006,-0.0006864428
25.20006,-0.0006848683
25.30006,-0.0006832796
25.40006,-0.0006816061
25.50006,-0.0006800203
25.60006,-0.000678473
25.70006,-0.00067684
25.80006,-0.0006753088
25.90006,-0.000673867
26.00006,-0.0006721813
26.10006,-0.0006706642
26.20006,-0.0006691555
26.30006,-0.0006676336
26.40006,-0.0006660497
26.50006,-0.0006646352
26.60007,-0.0006631058
26.70007,-0.0006615293
26.80007,-0.0006601356
26.90007,-0.0006586608
27.00007,-0.000657139
27.10007,-0.0006556906
27.20007,-0.0006542676
27.30007,-0.0006528437
27.40007,-0.000651402
27.50007,-0.0006500157
27.60007,-0.0006486211
27.70007,-0.0006472141
27.80007,-0.000645745
27.90007,-0.0006444322
28.00007,-0.0006429424
28.10007,-0.0006415665
28.20007,-0.0006402499
28.30007,-0.0006388383
28.40007,-0.0006374907
28.50007,-0.0006361477
28.60007,-0.0006347804
28.70007,-0.0006334648
28.80007,-0.000632105
28.90007,-0.0006307159
29.00007,-0.000629422
29.10007,-0.0006280357
29.20008,-0.0006267051
29.30008,-0.0006254517
29.40008,-0.0006241548
29.50008,-0.0006228138
29.60008,-0.0006215236
29.70008,-0.0006201977
29.80008,-0.0006189028
29.90008,-0.0006176616
30.00008,-0.0006164289
30.10008,-0.0006152875
30.20008,-0.0006139955
30.30008,-0.000612808
30.40008,-0.0006115074
30.50008,-0.000610286
30.60008,-0.0006090862
30.70008,-0.0006078629
30.80008,-0.000606617
30.90008,-0.0006053842
31.00008,-0.0006041299
31.10008,-0.0006029518
31.20008,-0.0006016908
31.30008,-0.0006004712
31.40008,-0.0005993704
31.50008,-0.0005981649
31.60008,-0.0005969784
31.70008,-0.0005958436
31.80009,-0.0005946014
31.90009,-0.0005934516
32.00008,-0.0005922932
32.10008,-0.0005911255
32.20008,-0.0005900218
32.30008,-0.0005888456
32.40008,-0.0005877758
32.50008,-0.0005866335
32.60007,-0.0005857077
32.70007,-0.0005845984
32.80007,-0.0005833572
32.90007,-0.0005823157
33.00007,-0.0005811403
33.10007,-0.0005799255
33.20007,-0.0005788218
33.30006,-0.0005777001
33.40006,-0.0005766002
33.50006,-0.0005756218
33.60006,-0.0005744409
33.70006,-0.0005732882
33.80006,-0.0005721732
33.90005,-0.0005710544
34.00005,-0.0005699958
34.10005,-0.0005689053
34.20005,-0.0005678865
34.30005,-0.0005668326
34.40005,-0.0005658278
34.50005,-0.0005648992
34.60004,-0.0005638134
34.70004,-0.0005627389
34.80004,-0.0005617265
34.90004,-0.0005605936
35.00004,-0.0005595493
35.10004,-0.0005585171
35.20004,-0.0005574492
35.30003,-0.0005564585
35.40003,-0.0005554206
35.50003,-0.0005543754
35.60003,-0.0005533272
35.70003,-0.0005522668
35.80003,-0.000551247
35.90002,-0.0005502158
36.00002,-0.000549177
36.10002,-0.0005481411
36.20002,-0.0005471825
36.30002,-0.0005461315
36.40002,-0.0005451097
36.50002,-0.0005441661
36.60001,-0.0005431076
36.70001,-0.000542163
36.80001,-0.0005412204
36.90001,-0.0005402127
37.00001,-0.0005392596
37.10001,-0.0005382745
37.2,-0.0005372943
37.3,-0.0005362857
37.4,-0.0005353082
37.5,-0.0005343456
37.6,-0.0005333879
37.7,-0.0005324368
37.8,-0.0005314668
37.89999,-0.0005305147
37.99999,-0.0005295966
38.09999,-0.0005286821
38.19999,-0.0005277508
38.29999,-0.0005267911
38.39999,-0.0005259463
38.49998,-0.0005250009
38.59998,-0.0005240479
38.69998,-0.0005231466
38.79998,-0.0005222812
38.89998,-0.0005213046
38.99998,-0.0005204015
39.09998,-0.0005195492
39.19997,-0.0005186102
39.29997,-0.0005177533
39.39997,-0.0005168559
39.49997,-0.0005158972
39.59997,-0.0005150487
39.69997,-0.0005141757
39.79996,-0.0005131718
39.89996,-0.0005123412
39.99996,-0.000511456
40.09996,-0.0005105246
40.19996,-0.0005096714
40.29996,-0.0005088078
40.39996,-0.0005079122
40.49995,-0.0005070505
40.59995,-0.0005061898
40.69995,-0.0005053441
40.79995,-0.0005045107
40.89995,-0.0005036792
40.99995,-0.0005028043
41.09995,-0.0005019078
41.19994,-0.000501095
41.29994,-0.0005002588
41.39994,-0.0004993895
41.49994,-0.0004985241
41.59994,-0.0004976464
41.69994,-0.0004968271
41.79993,-0.0004959889
41.89993,-0.0004951443
41.99993,-0.0004943381
42.09993,-0.000493452
42.19993,-0.0004926515
42.29993,-0.0004918717
42.39993,-0.0004910072
42.49992,-0.0004902002
42.59992,-0.0004894581
42.69992,-0.0004885926
42.79992,-0.0004877404
42.89992,-0.0004869437
42.99992,-0.0004861752
43.09991,-0.0004854058
43.19991,-0.0004846656
43.29991,-0.0004838887
43.39991,-0.0004830204
43.49991,-0.0004822227
43.59991,-0.0004814439
43.69991,-0.0004805079
43.7999,-0.0004797573
43.8999,-0.0004789747
43.9999,-0.0004781648
44.0999,-0.0004773889
44.1999,-0.0004766468
44.2999,-0.0004758265
44.39989,-0.0004750421
44.49989,-0.0004742802
44.59989,-0.0004735494
44.69989,-0.0004727198
44.79989,-0.0004719569
44.89989,-0.0004712384
44.99989,-0.0004704454
45.09988,-0.0004697015
45.19988,-0.0004689528
45.29988,-0.000468174
45.39988,-0.0004674432
45.49988,-0.0004666842
45.59988,-0.0004659581
45.69987,-0.0004652113
45.79987,-0.0004644052
45.89987,-0.0004636697
45.99987,-0.0004629474
46.09987,-0.0004622204
46.19987,-0.0004615207
46.29987,-0.0004607626
46.39986,-0.0004600836
46.49986,-0.0004592906
46.59986,-0.0004585373
46.69986,-0.0004579572
46.79986,-0.0004573055
46.89986,-0.0004564739
46.99986,-0.0004557243
47.09985,-0.0004550896
47.19985,-0.0004543456
47.29985,-0.0004535574
47.39985,-0.0004529406
47.49985,-0.0004522192
47.59985,-0.0004514112
47.69984,-0.0004508245
47.79984,-0.0004501116
47.89984,-0.0004493657
47.99984,-0.0004486679
48.09984,-0.0004480134
48.19984,-0.0004472638
48.29984,-0.0004465679
48.39983,-0.0004458936
48.49983,-0.0004451665
48.59983,-0.0004444848
48.69983,-0.0004438519
48.79983,-0.0004431428
48.89983,-0.0004424977
48.99982,-0.0004419317
49.09982,-0.0004412754
49.19982,-0.0004405916
49.29982,-0.000439955
49.39982,-0.0004392563
49.49982,-0.0004385471
49.59982,-0.0004379181
49.69981,-0.0004372608
49.79981,-0.0004365667
49.89981,-0.0004359188
49.99981,-0.0004352445
50.09981,-0.0004345721
50.19981,-0.0004339477
50.2998,-0.00043328
50.3998,-0.0004326029
50.4998,-0.0004319654
50.5998,-0.0004313504
50.6998,-0.0004307204
50.7998,-0.0004301064
50.8998,-0.0004295159
50.99979,-0.0004288765
51.09979,-0.0004282258
51.19979,-0.0004276758
51.29979,-0.0004270317
51.39979,-0.0004263498
51.49979,-0.0004257707
51.59978,-0.0004251162
51.69978,-0.0004244607
51.79978,-0.0004238213
51.89978,-0.0004231988
51.99978,-0.0004225801
52.09978,-0.0004219679
52.19978,-0.0004213398
52.29977,-0.0004207927
52.39977,-0.0004201956
52.49977,-0.0004195336
52.59977,-0.0004189573
52.69977,-0.0004184289
52.79977,-0.0004178507
52.89977,-0.0004171614
52.99976,-0.0004165606
53.09976,-0.0004159427
53.19976,-0.0004153363
53.29976,-0.0004146789
53.39976,-0.0004141224
53.49976,-0.0004135065
53.59975,-0.0004128821
53.69975,-0.0004123246
53.79975,-0.0004117756
53.89975,-0.0004111908
53.99975,-0.0004105551
54.09975,-0.0004099619
54.19975,-0.0004094034
54.29974,-0.0004087743
54.39974,-0.0004081603
54.49974,-0.0004075877
54.59974,-0.0004069812
54.69974,-0.0004064039
54.79974,-0.0004058003
54.89973,-0.0004051411
54.99973,-0.0004045855
55.09973,-0.0004040167
55.19973,-0.0004033923
55.29973,-0.0004027199
55.39973,-0.0004022104
55.49973,-0.0004016576
55.59972,-0.0004010069
55.69972,-0.0004004965
55.79972,-0.000399889
55.89972,-0.0003992769
55.99972,-0.0003987213
56.09972,-0.0003981535
56.19971,-0.0003975432
56.29971,-0.0003969641
56.39971,-0.0003964028
56.49971,-0.0003958236
56.59971,-0.0003952661
56.69971,-0.0003946822
56.79971,-0.0003941304
56.8997,-0.0003935578
56.9997,-0.0003930154
57.0997,-0.0003924381
57.1997,-0.0003918749
57.2997,-0.0003913221
57.3997,-0.0003907722
57.49969,-0.0003902495
57.59969,-0.0003896939
57.69969,-0.0003891185
57.79969,-0.0003886024
57.89969,-0.0003880929
57.99969,-0.0003875985
58.09969,-0.0003870994
58.19968,-0.0003866615
58.29968,-0.0003861501
58.39968,-0.0003856341
58.49968,-0.0003851416
58.59968,-0.0003846161
58.69968,-0.0003840981
58.79967,-0.000383614
58.89967,-0.0003830933
58.99967,-0.0003825932
59.09967,-0.000382112
59.19967,-0.0003815837
59.29967,-0.0003810554
59.39967,-0.0003804951
59.49966,-0.0003799997
59.59966,-0.0003794573
59.69966,-0.0003788913
59.79966,-0.0003783874
59.89966,-0.0003778309
59.99966,-0.0003772838
60.09966,-0.0003768035
60.19965,-0.0003762799
60.29965,-0.0003757722
60.39965,-0.0003752392
60.49965,-0.0003748051
60.59965,-0.00037429
60.69965,-0.0003737353
60.79964,-0.0003732409
60.89964,-0.0003727211
60.99964,-0.0003721447
61.09964,-0.0003716616
61.19964,-0.0003712001
61.29964,-0.0003706474
61.39964,-0.0003701492
61.49963,-0.0003696482
61.59963,-0.0003691274
61.69963,-0.0003686311
61.79963,-0.000368148
61.89963,-0.0003675971
61.99963,-0.0003670697
62.09962,-0.0003666054
62.19962,-0.0003661365
62.29962,-0.000365561
62.39962,-0.0003651194
62.49962,-0.0003646259
62.59962,-0.0003640722
62.69962,-0.0003636032
62.79961,-0.0003631201
62.89961,-0.0003625937
62.99961,-0.0003620992
63.09961,-0.0003616228
63.19961,-0.0003611133
63.29961,-0.0003606433
63.3996,-0.0003601489
63.4996,-0.0003596385
63.5996,-0.0003591582
63.6996,-0.0003586798
63.7996,-0.0003581939
63.8996,-0.000357724
63.9996,-0.0003572447
64.09959,-0.0003567653
64.19959,-0.0003562671
64.29959,-0.0003557812
64.39959,-0.0003553254
64.49959,-0.000354831
64.59959,-0.0003543385
64.69958,-0.0003538497
64.79958,-0.0003533411
64.89958,-0.0003528958
64.99958,-0.0003524823
65.09958,-0.0003519794
65.19958,-0.000351436
65.29958,-0.0003510273
65.39957,-0.0003505405
65.49957,-0.0003500931
65.59957,-0.0003496232
65.69957,-0.0003491325
65.79957,-0.0003486664
65.89957,-0.0003482342
65.99957,-0.0003477614
66.09956,-0.0003472425
66.19956,-0.0003468366
66.29956,-0.0003463686
66.39956,-0.0003458902
66.49956,-0.0003454372
66.59956,-0.0003450068
66.69955,-0.0003445473
66.79955,-0.0003440745
66.89955,-0.0003436583
66.99955,-0.0003432006
67.09955,-0.0003427533
67.19955,-0.0003422984
67.29955,-0.0003418229
67.39954,-0.0003414094
67.49954,-0.0003409903
67.59954,-0.0003404762
67.69954,-0.0003400439
67.79954,-0.0003396362
67.89954,-0.0003391653
67.99953,-0.0003386784
68.09953,-0.0003382791
68.19953,-0.0003378176
68.29953,-0.0003373873
68.39953,-0.0003369626
68.49953,-0.0003364861
68.59953,-0.000336034
68.69952,-0.000335631
68.79952,-0.0003352053
68.89952,-0.0003347382
68.99952,-0.0003343031
69.09952,-0.0003338822
69.19952,-0.0003334725
69.29951,-0.0003330186
69.39951,-0.0003326315
69.49951,-0.0003321258
69.59951,-0.0003317067
69.69951,-0.0003313075
69.79951,-0.0003308574
69.89951,-0.00033041
69.9995,-0.000330039
70.0995,-0.0003296293
70.1995,-0.0003291387
70.2995,-0.0003287968
70.3995,-0.0003283674
70.4995,-0.0003279069
70.59949,-0.0003274718
70.69949,-0.0003270961
70.79949,-0.0003266421
70.89949,-0.0003262099
70.99949,-0.0003258116
71.09949,-0.0003254057
71.19949,-0.0003249847
71.29948,-0.0003245571
71.39948,-0.0003241362
71.49948,-0.0003237077
71.59948,-0.0003233131
71.69948,-0.0003229148
71.79948,-0.0003225051
71.89948,-0.0003221058
71.99947,-0.0003216924
72.09947,-0.0003212563
72.19947,-0.0003208957
72.29947,-0.0003204757
72.39947,-0.0003200736
72.49947,-0.0003197543
72.59946,-0.0003193353
72.69946,-0.0003189152
72.79946,-0.0003185367
72.89946,-0.0003181562
72.99946,-0.0003177531
73.09946,-0.0003174527
73.19946,-0.0003171438
73.29945,-0.0003167446
73.39945,-0.0003163434
73.49945,-0.0003161127
73.59945,-0.0003156776
73.69945,-0.0003152416
73.79945,-0.0003149129
73.89944,-0.0003145023
73.99944,-0.0003140898
74.09944,-0.0003136877
74.19944,-0.0003133082
74.29944,-0.0003129108
74.39944,-0.0003125275
74.49944,-0.0003121574
74.59943,-0.0003117684
74.69943,-0.0003113889
74.79943,-0.000311032
74.89943,-0.0003106148
74.99943,-0.0003101825
75.09943,-0.0003098868
75.19942,-0.0003094659
75.29942,-0.0003090609
75.39942,-0.0003087304
75.49942,-0.0003083546
75.59942,-0.0003079582
75.69942,-0.0003075843
75.79942,-0.000307218
75.89941,-0.0003068111
75.99941,-0.0003064844
76.09941,-0.0003061303
76.19941,-0.0003057555
76.29941,-0.0003053402
76.39941,-0.0003050464
76.4994,-0.0003046687
76.5994,-0.0003042647
76.6994,-0.000303938
76.7994,-0.0003035885
76.8994,-0.0003032119
76.9994,-0.0003028079
77.0994,-0.0003024538
77.19939,-0.0003021006
77.29939,-0.0003017343
77.39939,-0.0003013651
77.49939,-0.000301029
77.59939,-0.0003006673
77.69939,-0.0003003424
77.79939,-0.0002999826
77.89938,-0.0002996323
77.99938,-0.0002992848
78.09938,-0.0002989486
78.19938,-0.0002985898
78.29938,-0.000298312
78.39938,-0.0002979316
78.49937,-0.0002975342
78.59937,-0.000297279
78.69937,-0.0002969597
78.79937,-0.00029655
78.89937,-0.0002962515
78.99937,-0.0002959492
79.09937,-0.0002956121
79.19936,-0.0002953192
79.29936,-0.0002949924
79.39936,-0.0002946525
79.49936,-0.0002943445
79.59936,-0.0002939923
79.69936,-0.0002936646
79.79935,-0.000293335
79.89935,-0.0002931344
79.99935,-0.0002928745
80.09935,-0.0002925364
80.19935,-0.0002922793
80.29935,-0.0002919601
80.39935,-0.0002915956
80.49934,-0.0002912594
80.59934,-0.0002909138
80.69934,-0.0002905579
80.79934,-0.0002901839
80.89934,-0.0002899137
80.99934,-0.0002895294
81.09933,-0.0002891509
81.19933,-0.0002888429
81.29933,-0.0002884785
81.39933,-0.0002880933
81.49933,-0.0002877778
81.59933,-0.0002874096
81.69933,-0.0002870433
81.79932,-0.000286692
81.89932,-0.0002863389
81.99932,-0.0002859829
82.09932,-0.000285625
82.19932,-0.0002852757
82.29932,-0.000284946
82.39931,-0.000284592
82.49931,-0.0002843057
82.59931,-0.0002839657
82.69931,-0.0002835909
82.79931,-0.0002832726
82.89931,-0.0002829486
82.99931,-0.0002826247
83.0993,-0.0002822423
83.1993,-0.0002819316
83.2993,-0.0002816236
83.3993,-0.0002812686
83.4993,-0.0002809004
83.5993,-0.0002805915
83.6993,-0.0002802571
83.79929,-0.0002798918
83.89929,-0.0002796159
83.99929,-0.0002792627
84.09929,-0.0002789359
84.19929,-0.0002785809
84.29929,-0.0002782362
84.39928,-0.0002779226
84.49928,-0.0002775987
84.59928,-0.0002772634
84.69928,-0.0002769536
84.79928,-0.0002766381
84.89928,-0.0002762859
84.99928,-0.0002759506
85.09927,-0.000275686
85.19927,-0.0002753027
85.29927,-0.0002749985
85.39927,-0.0002746991
85.49927,-0.000274345
85.59927,-0.0002740257
85.69926,-0.0002737686
85.79926,-0.0002734824
85.89926,-0.0002731414
85.99926,-0.0002728731
86.09926,-0.0002726405
86.19926,-0.0002723108
86.29926,-0.0002722788
86.39925,-0.0002721357
86.49925,-0.0002718305
86.59925,-0.0002719906
86.69925,-0.0002724483
86.79925,-0.0002720104
86.89925,-0.0002716676
86.99924,-0.0002714303
87.09924,-0.0002711063
87.19924,-0.0002707645
87.29924,-0.0002704594
87.39924,-0.0002701364
87.49924,-0.0002698256
87.59924,-0.0002695553
87.69923,-0.000269237
87.79923,-0.0002689686
87.89923,-0.0002686908
87.99923,-0.0002683772
88.09923,-0.000268041
88.19923,-0.0002677331
88.29922,-0.000267427
88.39922,-0.0002670597
88.49922,-0.0002667395
