EXPID. 0367
[电化学]: i-t : @ 0(V) X 600(sec)
起始电位 (V),0
静置时间 (秒),0
运行时间 (秒),600
记录间隔,0.1
电解液 信息:
HNO3,0.4
0.1,-0.007571765
0.2,-0.006813703
0.3,-0.006159874
0.4,-0.005580499
0.5,-0.005062964
0.6,-0.004542741
0.7,-0.004160753
0.8000001,-0.003903533
0.9000001,-0.003704996
1,-0.003542817
1.1,-0.003405131
1.2,-0.003286959
1.3,-0.003180773
1.4,-0.003087059
1.5,-0.00300244
1.6,-0.002925035
1.7,-0.002854726
1.8,-0.002790129
1.9,-0.00272993
2,-0.002674838
2.1,-0.002623229
2.2,-0.002575021
2.3,-0.002529972
2.4,-0.002487273
2.5,-0.002447359
2.6,-0.002409643
2.7,-0.002373958
2.799999,-0.002340012
2.899999,-0.002308164
2.999999,-0.002277594
3.099999,-0.002248504
3.199999,-0.002220881
3.299999,-0.002194381
3.399999,-0.002168906
3.499999,-0.002144732
3.599999,-0.002121444
3.699999,-0.002098964
3.799999,-0.002077558
3.899998,-0.002057012
3.999998,-0.002037008
4.099998,-0.002017878
4.199998,-0.001999837
4.299998,-0.0019819
4.399998,-0.0019648
4.499998,-0.00194831
4.599998,-0.001932232
4.699998,-0.001916692
4.799998,-0.001901543
4.899998,-0.001886869
4.999998,-0.001872708
5.099998,-0.00185909
5.199997,-0.001845824
5.299997,-0.001832766
5.399997,-0.001820225
5.499997,-0.001807712
5.599997,-0.001795732
5.699997,-0.001784094
5.799997,-0.001772478
5.899997,-0.001761315
5.999997,-0.001750432
6.099997,-0.001739579
6.199996,-0.001729197
6.299996,-0.001718923
6.399996,-0.001708945
6.499996,-0.001699247
6.599996,-0.001689737
6.699996,-0.001680486
6.799996,-0.00167135
6.899996,-0.001662393
6.999996,-0.00165362
7.099996,-0.001645057
7.199996,-0.001636754
7.299995,-0.001628512
7.399995,-0.001620453
7.499995,-0.001612724
7.599995,-0.00160497
7.699995,-0.001597464
7.799995,-0.001590071
7.899995,-0.001582701
7.999995,-0.001575427
8.099995,-0.001568399
8.199995,-0.001561493
8.299995,-0.00155473
8.399996,-0.001548091
8.499996,-0.001541604
8.599997,-0.0015352
8.699997,-0.001528909
8.799997,-0.001522701
8.899998,-0.001516542
8.999998,-0.00151054
9.099998,-0.001504609
9.199999,-0.001498744
9.299999,-0.001493108
9.4,-0.001487584
9.5,-0.001482098
9.6,-0.001476763
9.700001,-0.001471269
9.800001,-0.001466101
9.900002,-0.001460866
10,-0.001455712
10.1,-0.001450669
10.2,-0.001445524
10.3,-0.001440565
10.4,-0.001435698
10.5,-0.001430801
10.6,-0.001425957
10.7,-0.001421149
10.8,-0.001416459
10.90001,-0.001411842
11.00001,-0.001407259
11.10001,-0.001402857
11.20001,-0.001398349
11.30001,-0.001393944
11.40001,-0.001389645
11.50001,-0.001385306
11.60001,-0.001381228
11.70001,-0.001377109
11.80001,-0.001373011
11.90001,-0.001368986
12.00001,-0.00136504
12.10001,-0.001361132
12.20001,-0.001357289
12.30001,-0.001353477
12.40001,-0.00134967
12.50001,-0.001345934
12.60001,-0.001342231
12.70001,-0.00133862
12.80001,-0.001335017
12.90001,-0.001331433
13.00001,-0.001327865
13.10001,-0.001324388
13.20001,-0.001320929
13.30001,-0.001317516
13.40001,-0.001314064
13.50002,-0.001310727
13.60002,-0.001307389
13.70002,-0.001304078
13.80002,-0.001300838
13.90002,-0.001297702
14.00002,-0.001294529
14.10002,-0.001291343
14.20002,-0.00128827
14.30002,-0.001285206
14.40002,-0.001282083
14.50002,-0.001279085
14.60002,-0.001276064
14.70002,-0.001273008
14.80002,-0.001270034
14.90002,-0.001267103
15.00002,-0.001264089
15.10002,-0.001261223
15.20002,-0.00125843
15.30002,-0.001255594
15.40002,-0.001252763
15.50002,-0.001249998
15.60002,-0.001247317
15.70002,-0.001244697
15.80002,-0.001242049
15.90002,-0.001239333
16.00002,-0.00123664
16.10003,-0.001234021
16.20003,-0.001231337
16.30003,-0.001228684
16.40003,-0.001226213
16.50003,-0.001223716
16.60003,-0.001221152
16.70003,-0.001218691
16.80003,-0.001216207
16.90003,-0.001213742
17.00003,-0.001211289
17.10003,-0.001208866
17.20003,-0.00120644
17.30003,-0.00120419
17.40003,-0.001201916
17.50003,-0.001199602
17.60003,-0.001197192
17.70003,-0.001194855
17.80003,-0.001192558
17.90003,-0.001190151
18.00003,-0.001187812
18.10003,-0.001185522
18.20003,-0.001183221
18.30003,-0.001180955
18.40003,-0.001178697
18.50003,-0.001176468
18.60003,-0.00117429
18.70004,-0.001172103
18.80004,-0.001169947
18.90004,-0.00116785
19.00004,-0.001165723
19.10004,-0.001163614
19.20004,-0.001161613
19.30004,-0.001159569
19.40004,-0.001157522
19.50004,-0.001155446
19.60004,-0.00115345
19.70004,-0.001151473
19.80004,-0.001149543
19.90004,-0.001147619
20.00004,-0.001145631
20.10004,-0.001143602
20.20004,-0.001141608
20.30004,-0.001139598
20.40004,-0.001137611
20.50004,-0.00113562
20.60004,-0.001133587
20.70004,-0.001131616
20.80004,-0.001129551
20.90004,-0.001127568
21.00004,-0.001125601
21.10004,-0.001123607
21.20004,-0.001121642
21.30005,-0.001119754
21.40005,-0.001117881
21.50005,-0.001115996
21.60005,-0.00111414
21.70005,-0.001112293
21.80005,-0.001110518
21.90005,-0.001108758
22.00005,-0.001106934
22.10005,-0.001105073
22.20005,-0.001103268
22.30005,-0.0011015
22.40005,-0.001099703
22.50005,-0.001097967
22.60005,-0.001096263
22.70005,-0.001094533
22.80005,-0.001092823
22.90005,-0.001091197
23.00005,-0.001089583
23.10005,-0.001087986
23.20005,-0.001086393
23.30005,-0.00108489
23.40005,-0.001083334
23.50005,-0.001081715
23.60005,-0.001080113
23.70005,-0.001078399
23.80005,-0.001076745
23.90005,-0.001075133
24.00006,-0.001073522
24.10006,-0.00107189
24.20006,-0.001070352
24.30006,-0.001068959
24.40006,-0.001067462
24.50006,-0.001065939
24.60006,-0.001064455
24.70006,-0.001062906
24.80006,-0.001061391
24.90006,-0.001059886
25.00006,-0.001058423
25.10006,-0.001056979
25.20006,-0.001055455
25.30006,-0.001054066
25.40006,-0.001052606
25.50006,-0.001051185
25.60006,-0.001049741
25.70006,-0.001048389
25.80006,-0.001046924
25.90006,-0.001045518
26.00006,-0.001044105
26.10006,-0.001042674
26.20006,-0.001041248
26.30006,-0.001039785
26.40006,-0.001038318
26.50006,-0.001036861
26.60007,-0.001035318
26.70007,-0.001033897
26.80007,-0.001032431
26.90007,-0.001030917
27.00007,-0.001029449
27.10007,-0.001027992
27.20007,-0.00102653
27.30007,-0.001025088
27.40007,-0.001023704
27.50007,-0.001022309
27.60007,-0.001020926
27.70007,-0.001019581
27.80007,-0.001018286
27.90007,-0.001016926
28.00007,-0.001015635
28.10007,-0.00101437
28.20007,-0.001013091
28.30007,-0.001011812
28.40007,-0.001010615
28.50007,-0.001009407
28.60007,-0.001008122
28.70007,-0.001006859
28.80007,-0.001005603
28.90007,-0.001004378
29.00007,-0.00100314
29.10007,-0.001001956
29.20008,-0.001000708
29.30008,-0.0009995818
29.40008,-0.0009983537
29.50008,-0.0009971802
29.60008,-0.0009960013
29.70008,-0.0009947836
29.80008,-0.0009935217
29.90008,-0.000992369
30.00008,-0.0009911946
30.10008,-0.0009899742
30.20008,-0.000988781
30.30008,-0.0009876217
30.40008,-0.0009864935
30.50008,-0.0009853935
30.60008,-0.0009842853
30.70008,-0.0009831523
30.80008,-0.0009819997
30.90008,-0.0009808649
31.00008,-0.0009796716
31.10008,-0.0009784738
31.20008,-0.0009772918
31.30008,-0.0009760903
31.40008,-0.0009748754
31.50008,-0.0009736822
31.60008,-0.0009725898
31.70008,-0.0009714352
31.80009,-0.000970292
31.90009,-0.0009691516
32.00008,-0.0009679744
32.10008,-0.0009668189
32.20008,-0.0009656342
32.30008,-0.0009645032
32.40008,-0.0009633637
32.50008,-0.0009622157
32.60007,-0.0009611261
32.70007,-0.0009600158
32.80007,-0.0009589564
32.90007,-0.0009578696
33.00007,-0.0009567951
33.10007,-0.0009557592
33.20007,-0.0009546705
33.30006,-0.0009536063
33.40006,-0.0009525808
33.50006,-0.0009515148
33.60006,-0.0009505071
33.70006,-0.0009494439
33.80006,-0.0009484353
33.90005,-0.0009474267
34.00005,-0.0009463824
34.10005,-0.0009453681
34.20005,-0.0009443915
34.30005,-0.0009434385
34.40005,-0.0009425128
34.50005,-0.0009414713
34.60004,-0.0009404353
34.70004,-0.0009394541
34.80004,-0.0009385076
34.90004,-0.0009375226
35.00004,-0.0009364942
35.10004,-0.0009354884
35.20004,-0.000934445
35.30003,-0.000933379
35.40003,-0.0009323873
35.50003,-0.0009313457
35.60003,-0.0009303268
35.70003,-0.0009292975
35.80003,-0.0009282861
35.90002,-0.0009272342
36.00002,-0.0009262312
36.10002,-0.0009252283
36.20002,-0.000924264
36.30002,-0.0009232846
36.40002,-0.0009222656
36.50002,-0.0009212843
36.60001,-0.0009203011
36.70001,-0.0009194046
36.80001,-0.0009184468
36.90001,-0.0009174985
37.00001,-0.0009165342
37.10001,-0.0009155972
37.2,-0.0009146451
37.3,-0.0009137382
37.4,-0.0009128596
37.5,-0.0009119508
37.6,-0.0009110693
37.7,-0.000910169
37.8,-0.0009092056
37.89999,-0.0009082715
37.99999,-0.0009073457
38.09999,-0.0009064021
38.19999,-0.0009054829
38.29999,-0.0009045836
38.39999,-0.0009036814
38.49998,-0.0009027887
38.59998,-0.0009019515
38.69998,-0.0009009702
38.79998,-0.0009001358
38.89998,-0.0008992732
38.99998,-0.0008983513
39.09998,-0.000897417
39.19997,-0.0008964969
39.29997,-0.0008957078
39.39997,-0.000894816
39.49997,-0.0008938508
39.59997,-0.000892974
39.69997,-0.0008920831
39.79996,-0.0008911762
39.89996,-0.0008902872
39.99996,-0.0008893907
40.09996,-0.0008884772
40.19996,-0.0008875778
40.29996,-0.0008867011
40.39996,-0.0008858478
40.49995,-0.0008849985
40.59995,-0.0008840482
40.69995,-0.0008832412
40.79995,-0.0008824191
40.89995,-0.0008815536
40.99995,-0.0008806655
41.09995,-0.0008798208
41.19994,-0.0008789008
41.29994,-0.0008780268
41.39994,-0.0008771415
41.49994,-0.0008762535
41.59994,-0.000875405
41.69994,-0.0008745471
41.79993,-0.0008736826
41.89993,-0.0008727936
41.99993,-0.0008719978
42.09993,-0.0008711747
42.19993,-0.000870315
42.29993,-0.000869442
42.39993,-0.0008686217
42.49992,-0.00086781
42.59992,-0.0008669822
42.69992,-0.0008661892
42.79992,-0.0008653351
42.89992,-0.0008645252
42.99992,-0.00086372
43.09991,-0.0008629469
43.19991,-0.0008620861
43.29991,-0.0008612442
43.39991,-0.0008604767
43.49991,-0.0008596555
43.59991,-0.0008587825
43.69991,-0.0008579727
43.7999,-0.0008571552
43.8999,-0.0008563124
43.9999,-0.0008554346
44.0999,-0.0008545946
44.1999,-0.0008537782
44.2999,-0.0008529401
44.39989,-0.0008521019
44.49989,-0.0008513202
44.59989,-0.0008504906
44.69989,-0.0008496411
44.79989,-0.000848884
44.89989,-0.0008481287
44.99989,-0.0008473151
45.09988,-0.0008464967
45.19988,-0.0008457151
45.29988,-0.0008449748
45.39988,-0.0008441198
45.49988,-0.0008434059
45.59988,-0.0008426629
45.69987,-0.0008418908
45.79987,-0.0008410648
45.89987,-0.000840334
45.99987,-0.0008394638
46.09987,-0.0008386596
46.19987,-0.0008378855
46.29987,-0.0008371284
46.39986,-0.0008363185
46.49986,-0.0008355303
46.59986,-0.0008348145
46.69986,-0.0008339971
46.79986,-0.0008332249
46.89986,-0.0008324734
46.99986,-0.0008317435
47.09985,-0.0008310099
47.19985,-0.0008302405
47.29985,-0.000829521
47.39985,-0.0008287319
47.49985,-0.0008279973
47.59985,-0.0008272439
47.69984,-0.0008264519
47.79984,-0.0008256722
47.89984,-0.0008248906
47.99984,-0.0008241494
48.09984,-0.0008234007
48.19984,-0.0008226258
48.29984,-0.0008218469
48.39983,-0.0008211227
48.49983,-0.0008203392
48.59983,-0.00081963
48.69983,-0.0008188945
48.79983,-0.0008181609
48.89983,-0.0008173944
48.99982,-0.0008166343
49.09982,-0.0008158961
49.19982,-0.0008151248
49.29982,-0.0008144383
49.39982,-0.0008137263
49.49982,-0.0008128986
49.59982,-0.0008121828
49.69981,-0.0008113937
49.79981,-0.0008105978
49.89981,-0.0008097739
49.99981,-0.0008088764
50.09981,-0.0008080364
50.19981,-0.0008072217
50.2998,-0.0008064203
50.3998,-0.0008055728
50.4998,-0.0008047865
50.5998,-0.0008040462
50.6998,-0.0008032769
50.7998,-0.0008024971
50.8998,-0.000801771
50.99979,-0.0008009913
51.09979,-0.0008002539
51.19979,-0.0007995504
51.29979,-0.0007988263
51.39979,-0.0007980663
51.49979,-0.0007973383
51.59978,-0.0007966142
51.69978,-0.0007958805
51.79978,-0.0007951658
51.89978,-0.0007943417
51.99978,-0.0007936401
52.09978,-0.0007929404
52.19978,-0.0007922369
52.29977,-0.0007915513
52.39977,-0.0007908922
52.49977,-0.0007902188
52.59977,-0.0007895078
52.69977,-0.0007888515
52.79977,-0.0007881573
52.89977,-0.0007874935
52.99976,-0.0007868267
53.09976,-0.000786176
53.19976,-0.0007854923
53.29976,-0.0007847926
53.39976,-0.0007841032
53.49976,-0.0007833546
53.59975,-0.0007825983
53.69975,-0.0007818779
53.79975,-0.0007811688
53.89975,-0.0007804219
53.99975,-0.0007797298
54.09975,-0.0007790584
54.19975,-0.0007782881
54.29974,-0.0007776062
54.39974,-0.0007769574
54.49974,-0.000776318
54.59974,-0.0007756427
54.69974,-0.0007750287
54.79974,-0.0007743488
54.89973,-0.0007737046
54.99973,-0.0007731104
55.09973,-0.0007724728
55.19973,-0.0007718211
55.29973,-0.0007711478
55.39973,-0.0007704462
55.49973,-0.0007697776
55.59972,-0.0007691024
55.69972,-0.0007684329
55.79972,-0.0007677689
55.89972,-0.0007670767
55.99972,-0.0007663996
56.09972,-0.0007657121
56.19971,-0.0007649965
56.29971,-0.0007643268
56.39971,-0.0007636441
56.49971,-0.0007629698
56.59971,-0.0007623502
56.69971,-0.0007617305
56.79971,-0.0007611155
56.8997,-0.0007605119
56.9997,-0.0007598574
57.0997,-0.0007592067
57.1997,-0.00075857
57.2997,-0.0007580107
57.3997,-0.0007573486
57.49969,-0.0007567186
57.59969,-0.0007561282
57.69969,-0.0007555273
57.79969,-0.0007549613
57.89969,-0.0007543454
57.99969,-0.0007537163
58.09969,-0.0007530751
58.19968,-0.0007524705
58.29968,-0.0007518423
58.39968,-0.0007512444
58.49968,-0.0007506303
58.59968,-0.000750071
58.69968,-0.0007494202
58.79967,-0.0007488363
58.89967,-0.0007482882
58.99967,-0.0007476337
59.09967,-0.0007469736
59.19967,-0.0007463256
59.29967,-0.0007457135
59.39967,-0.0007450261
59.49966,-0.0007443866
59.59966,-0.0007437575
59.69966,-0.0007431727
59.79966,-0.0007425465
59.89966,-0.0007419155
59.99966,-0.0007412921
60.09966,-0.0007406677
60.19965,-0.0007400716
60.29965,-0.0007394435
60.39965,-0.0007388135
60.49965,-0.0007382597
60.59965,-0.0007376382
60.69965,-0.0007370355
60.79964,-0.0007364931
60.89964,-0.0007359167
60.99964,-0.0007353065
61.09964,-0.0007347254
61.19964,-0.0007341519
61.29964,-0.0007335426
61.39964,-0.0007329814
61.49963,-0.0007323965
61.59963,-0.0007317947
61.69963,-0.0007312448
61.79963,-0.0007306911
61.89963,-0.0007300855
61.99963,-0.000729543
62.09962,-0.0007289544
62.19962,-0.0007283716
62.29962,-0.000727766
62.39962,-0.0007272189
62.49962,-0.0007266275
62.59962,-0.0007260672
62.69962,-0.0007255171
62.79961,-0.0007248985
62.89961,-0.0007243033
62.99961,-0.000723726
63.09961,-0.0007231242
63.19961,-0.0007225102
63.29961,-0.0007219433
63.3996,-0.0007213331
63.4996,-0.00072072
63.5996,-0.0007201267
63.6996,-0.0007195381
63.7996,-0.0007189119
63.8996,-0.0007183233
63.9996,-0.0007177375
64.09959,-0.0007170708
64.19959,-0.0007164681
64.29959,-0.0007159021
64.39959,-0.0007152965
64.49959,-0.0007146383
64.59959,-0.0007140121
64.69958,-0.0007134573
64.79958,-0.0007128396
64.89958,-0.0007121615
64.99958,-0.0007115739
65.09958,-0.0007109204
65.19958,-0.0007103006
65.29958,-0.0007096735
65.39957,-0.0007090595
65.49957,-0.0007084614
65.59957,-0.0007078785
65.69957,-0.0007072805
65.79957,-0.0007066769
65.89957,-0.0007061138
65.99957,-0.00070556
66.09956,-0.0007049658
66.19956,-0.0007044327
66.29956,-0.0007039101
66.39956,-0.0007033733
66.49956,-0.0007028045
66.59956,-0.0007022696
66.69955,-0.0007017046
66.79955,-0.0007010802
66.89955,-0.0007004992
66.99955,-0.0006999266
67.09955,-0.0006993145
67.19955,-0.0006987513
67.29955,-0.000698142
67.39954,-0.0006975628
67.49954,-0.0006970496
67.59954,-0.0006964986
67.69954,-0.0006959119
67.79954,-0.0006953808
67.89954,-0.0006948431
67.99953,-0.0006942611
68.09953,-0.000693713
68.19953,-0.0006932177
68.29953,-0.0006926141
68.39953,-0.0006920631
68.49953,-0.0006915734
68.59953,-0.0006909924
68.69952,-0.0006904857
68.79952,-0.0006899838
68.89952,-0.0006894348
68.99952,-0.000688848
69.09952,-0.0006882802
69.19952,-0.0006877585
69.29951,-0.0006871228
69.39951,-0.0006865794
69.49951,-0.0006859927
69.59951,-0.0006853448
69.69951,-0.0006847346
69.79951,-0.000684163
69.89951,-0.0006835922
69.9995,-0.0006830028
70.0995,-0.0006824311
70.1995,-0.0006818679
70.2995,-0.0006812643
70.3995,-0.0006806935
70.4995,-0.0006801389
70.59949,-0.0006795474
70.69949,-0.0006789881
70.79949,-0.0006784598
70.89949,-0.0006779107
70.99949,-0.0006773194
71.09949,-0.0006768042
71.19949,-0.000676243
71.29948,-0.0006757203
71.39948,-0.0006752438
71.49948,-0.0006746881
71.59948,-0.0006741928
71.69948,-0.0006737153
71.79948,-0.0006731936
71.89948,-0.000672653
71.99947,-0.0006721399
72.09947,-0.0006716709
72.19947,-0.0006711218
72.29947,-0.000670585
72.39947,-0.000670099
72.49947,-0.0006695802
72.59946,-0.00066905
72.69946,-0.0006685641
72.79946,-0.000668048
72.89946,-0.0006675545
72.99946,-0.0006671044
73.09946,-0.0006666222
73.19946,-0.0006661183
73.29945,-0.0006656052
73.39945,-0.0006650948
73.49945,-0.0006646098
73.59945,-0.0006641135
73.69945,-0.0006636115
73.79945,-0.0006631444
73.89944,-0.0006626368
73.99944,-0.0006621904
74.09944,-0.0006616178
74.19944,-0.0006610886
74.29944,-0.0006606206
74.39944,-0.0006600819
74.49944,-0.0006595357
74.59943,-0.0006590564
74.69943,-0.0006585422
74.79943,-0.0006579687
74.89943,-0.0006574799
74.99943,-0.0006570212
75.09943,-0.0006564694
75.19942,-0.0006559807
75.29942,-0.0006554458
75.39942,-0.0006549316
75.49942,-0.0006544117
75.59942,-0.0006538976
75.69942,-0.0006534257
75.79942,-0.0006528871
75.89941,-0.0006523785
75.99941,-0.0006518343
76.09941,-0.0006512842
76.19941,-0.0006507936
76.29941,-0.0006502766
76.39941,-0.0006497464
76.4994,-0.0006492652
76.5994,-0.0006487716
76.6994,-0.0006482698
76.7994,-0.0006477688
76.8994,-0.0006473035
76.9994,-0.0006468101
77.0994,-0.0006462884
77.19939,-0.0006458241
77.29939,-0.0006453212
77.39939,-0.0006448306
77.49939,-0.0006443795
77.59939,-0.0006439331
77.69939,-0.0006434613
77.79939,-0.0006429848
77.89938,-0.0006424895
77.99938,-0.0006419667
78.09938,-0.0006414328
78.19938,-0.0006409318
78.29938,-0.0006404553
78.39938,-0.0006400145
78.49937,-0.0006395003
78.59937,-0.0006389947
78.69937,-0.0006384955
78.79937,-0.0006379861
78.89937,-0.0006374983
78.99937,-0.0006370142
79.09937,-0.0006365537
79.19936,-0.0006360687
79.29936,-0.0006355555
79.39936,-0.000635127
79.49936,-0.0006346796
79.59936,-0.0006341975
79.69936,-0.0006337228
79.79935,-0.000633253
79.89935,-0.0006328084
79.99935,-0.000632395
80.09935,-0.0006319317
80.19935,-0.0006314326
80.29935,-0.0006309617
80.39935,-0.0006304305
80.49934,-0.0006299371
80.59934,-0.0006294587
80.69934,-0.0006289831
80.79934,-0.0006284388
80.89934,-0.000627934
80.99934,-0.0006274792
81.09933,-0.0006269792
81.19933,-0.0006264818
81.29933,-0.0006260119
81.39933,-0.0006255326
81.49933,-0.0006250966
81.59933,-0.0006246182
81.69933,-0.0006241567
81.79932,-0.00062365
81.89932,-0.0006231896
81.99932,-0.0006227149
82.09932,-0.0006222319
82.19932,-0.0006217082
82.29932,-0.0006211771
82.39931,-0.0006206827
82.49931,-0.0006201374
82.59931,-0.0006196223
82.69931,-0.000619061
82.79931,-0.0006185374
82.89931,-0.0006180261
82.99931,-0.0006175128
83.0993,-0.0006169732
83.1993,-0.0006164609
83.2993,-0.0006159599
83.3993,-0.000615473
83.4993,-0.0006149918
83.5993,-0.0006145106
83.6993,-0.0006140077
83.79929,-0.0006135133
83.89929,-0.0006130867
83.99929,-0.0006126214
84.09929,-0.0006121158
84.19929,-0.000611692
84.29929,-0.0006112042
84.39928,-0.0006107342
84.49928,-0.0006103275
84.59928,-0.0006098904
84.69928,-0.0006094421
84.79928,-0.0006090297
84.89928,-0.0006085635
84.99928,-0.0006081389
85.09927,-0.0006076925
85.19927,-0.0006072536
85.29927,-0.0006067714
85.39927,-0.0006063213
85.49927,-0.0006058721
85.59927,-0.0006054191
85.69926,-0.0006049708
85.79926,-0.0006045565
85.89926,-0.0006040545
85.99926,-0.0006035884
86.09926,-0.0006031769
86.19926,-0.000602755
86.29926,-0.0006022879
86.39925,-0.0006018283
86.49925,-0.0006013744
86.59925,-0.0006009082
86.69925,-0.000600427
86.79925,-0.0005999231
86.89925,-0.0005994419
86.99924,-0.0005989494
87.09924,-0.0005984475
87.19924,-0.0005980076
87.29924,-0.0005975321
87.39924,-0.0005970499
87.49924,-0.0005965593
87.59924,-0.0005961327
87.69923,-0.0005957127
87.79923,-0.0005952258
87.89923,-0.0005947973
87.99923,-0.0005943415
88.09923,-0.0005938716
88.19923,-0.0005934469
88.29922,-0.0005930334
88.39922,-0.0005926031
88.49922,-0.0005921369
88.59922,-0.000591748
88.69922,-0.0005913506
88.79922,-0.0005909079
88.89922,-0.0005904728
88.99921,-0.0005900934
89.09921,-0.0005896083
89.19921,-0.0005891827
