EXPID. 0611
[电化学]: i-t : @ 0(V) X 600(sec)
起始电位 (V),0
静置时间 (秒),0
运行时间 (秒),600
记录间隔,0.1
电解液 信息:
HNO3,0.4
0.1,-0.01005814
0.2,-0.01005814
0.3,-0.01005814
0.4,-0.01005814
0.5,-0.01005814
0.6,-0.01005814
0.7,-0.01005814
0.8000001,-0.01005814
0.9000001,-0.01005814
1,-0.01005814
1.1,-0.01005814
1.2,-0.01005814
1.3,-0.01005814
1.4,-0.01005814
1.5,-0.01005814
1.6,-0.01005814
1.7,-0.01005814
1.8,-0.01005814
1.9,-0.01005814
2,-0.01005814
2.1,-0.01005814
2.2,-0.01005814
2.3,-0.01005814
2.4,-0.01005814
2.5,-0.01005814
2.6,-0.01005814
2.7,-0.01005814
2.799999,-0.009948139
2.899999,-0.009635001
2.999999,-0.009368502
3.099999,-0.009113268
3.199999,-0.008888721
3.299999,-0.008687349
3.399999,-0.008488351
3.499999,-0.008311744
3.599999,-0.008148271
3.699999,-0.007987415
3.799999,-0.007843801
3.899998,-0.00770176
3.999998,-0.007566547
4.099998,-0.007435479
4.199998,-0.007314225
4.299998,-0.007178658
4.399998,-0.007065829
4.499998,-0.006942207
4.599998,-0.006817228
4.699998,-0.006700341
4.799998,-0.006576712
4.899998,-0.006459376
4.999998,-0.006343196
5.099998,-0.006227941
5.199997,-0.006114452
5.299997,-0.005998463
5.399997,-0.005887317
5.499997,-0.005775364
5.599997,-0.005665636
5.699997,-0.005566396
5.799997,-0.005475744
5.899997,-0.005391859
5.999997,-0.005317037
6.099997,-0.005247006
6.199996,-0.005179913
6.299996,-0.005118791
6.399996,-0.005060423
6.499996,-0.005004421
6.599996,-0.004951343
6.699996,-0.004901265
6.799996,-0.004851701
6.899996,-0.004805988
6.999996,-0.004761298
7.099996,-0.004718851
7.199996,-0.004677631
7.299995,-0.004637757
7.399995,-0.004600229
7.499995,-0.004562325
7.599995,-0.00452691
7.699995,-0.004492929
7.799995,-0.004458801
7.899995,-0.004426073
7.999995,-0.004394534
8.099995,-0.004363133
8.199995,-0.004333051
8.299995,-0.004304308
8.399996,-0.004275238
8.499996,-0.00424769
8.599997,-0.004220735
8.699997,-0.004194259
8.799997,-0.004169002
8.899998,-0.00414402
8.999998,-0.004119487
9.099998,-0.004095578
9.199999,-0.004072137
9.299999,-0.004049588
9.4,-0.004027535
9.5,-0.0040056
9.6,-0.003985064
9.700001,-0.00396411
9.800001,-0.003943725
9.900002,-0.00392435
10,-0.0039047
10.1,-0.003885909
10.2,-0.003867061
10.3,-0.003847841
10.4,-0.003829779
10.5,-0.003811791
10.6,-0.003793613
10.7,-0.003776414
10.8,-0.003759268
10.90001,-0.003742449
11.00001,-0.003726224
11.10001,-0.003710175
11.20001,-0.003693616
11.30001,-0.00367849
11.40001,-0.003663034
11.50001,-0.003647315
11.60001,-0.003632728
11.70001,-0.003617719
11.80001,-0.003603402
11.90001,-0.003589166
12.00001,-0.003575654
12.10001,-0.003561588
12.20001,-0.003547666
12.30001,-0.003534529
12.40001,-0.003521129
12.50001,-0.003507985
12.60001,-0.003495332
12.70001,-0.003482122
12.80001,-0.003469592
12.90001,-0.003457267
13.00001,-0.003444974
13.10001,-0.003433707
13.20001,-0.003422878
13.30001,-0.00341085
13.40001,-0.003399425
13.50002,-0.003387715
13.60002,-0.00337589
13.70002,-0.003364265
13.80002,-0.003352719
13.90002,-0.003341676
14.00002,-0.003330766
14.10002,-0.003319574
14.20002,-0.003309163
14.30002,-0.003298854
14.40002,-0.003288555
14.50002,-0.003278965
14.60002,-0.003269096
14.70002,-0.003259632
14.80002,-0.003249536
14.90002,-0.003239821
15.00002,-0.003229966
15.10002,-0.003220086
15.20002,-0.003210388
15.30002,-0.003200958
15.40002,-0.003191259
15.50002,-0.003181593
15.60002,-0.00317234
15.70002,-0.003162945
15.80002,-0.003153901
15.90002,-0.003144867
16.00002,-0.003136079
16.10003,-0.003127802
16.20003,-0.003119368
16.30003,-0.003110943
16.40003,-0.003102443
16.50003,-0.003094057
16.60003,-0.003086052
16.70003,-0.003077751
16.80003,-0.003069157
16.90003,-0.003060813
17.00003,-0.003052528
17.10003,-0.00304421
17.20003,-0.003036463
17.30003,-0.0030281
17.40003,-0.003020291
17.50003,-0.003012736
17.60003,-0.003004827
17.70003,-0.002997475
17.80003,-0.002990347
17.90003,-0.002982598
18.00003,-0.00297549
18.10003,-0.002968703
18.20003,-0.002961282
18.30003,-0.002953977
18.40003,-0.002946937
18.50003,-0.002939615
18.60003,-0.002932568
18.70004,-0.002925531
18.80004,-0.002918283
18.90004,-0.002911451
19.00004,-0.002904393
19.10004,-0.002897669
19.20004,-0.002891231
19.30004,-0.00288513
19.40004,-0.002878721
19.50004,-0.002871803
19.60004,-0.002865033
19.70004,-0.002858405
19.80004,-0.00285164
19.90004,-0.002844931
20.00004,-0.002838317
20.10004,-0.002831538
20.20004,-0.002825214
20.30004,-0.002818834
20.40004,-0.002812336
20.50004,-0.002806268
20.60004,-0.002800272
20.70004,-0.002794327
20.80004,-0.00278814
20.90004,-0.002781925
21.00004,-0.002775984
21.10004,-0.002770024
21.20004,-0.002764131
21.30005,-0.002758402
21.40005,-0.00275263
21.50005,-0.002746581
21.60005,-0.00274096
21.70005,-0.002735286
21.80005,-0.002729542
21.90005,-0.00272399
22.00005,-0.002718259
22.10005,-0.002712623
22.20005,-0.002707213
22.30005,-0.00270158
22.40005,-0.002696216
22.50005,-0.002690725
22.60005,-0.002685071
22.70005,-0.00267967
22.80005,-0.002674445
22.90005,-0.002669013
23.00005,-0.002663897
23.10005,-0.002658594
23.20005,-0.002653507
23.30005,-0.002648365
23.40005,-0.002643082
23.50005,-0.00263851
23.60005,-0.002633548
23.70005,-0.002628736
23.80005,-0.002623749
23.90005,-0.002618739
24.00006,-0.002613715
24.10006,-0.002608733
24.20006,-0.002603418
24.30006,-0.002598297
24.40006,-0.002593226
24.50006,-0.002588032
24.60006,-0.002583149
24.70006,-0.002578227
24.80006,-0.002573112
24.90006,-0.002568456
25.00006,-0.002563704
25.10006,-0.002558697
25.20006,-0.002554029
25.30006,-0.002549166
25.40006,-0.002544356
25.50006,-0.002539915
25.60006,-0.002535198
25.70006,-0.002530452
25.80006,-0.002525765
25.90006,-0.002521045
26.00006,-0.002516436
26.10006,-0.002511908
26.20006,-0.002507278
26.30006,-0.002502768
26.40006,-0.002498309
26.50006,-0.002493606
26.60007,-0.002489409
26.70007,-0.002484922
26.80007,-0.002480796
26.90007,-0.002476571
27.00007,-0.002471977
27.10007,-0.002467669
27.20007,-0.002463256
27.30007,-0.002458825
27.40007,-0.0024545
27.50007,-0.002450041
27.60007,-0.002445753
27.70007,-0.00244142
27.80007,-0.002437123
27.90007,-0.002432715
28.00007,-0.00242869
28.10007,-0.002424427
28.20007,-0.002420265
28.30007,-0.00241614
28.40007,-0.002411815
28.50007,-0.002407694
28.60007,-0.002403509
28.70007,-0.002399415
28.80007,-0.002395293
28.90007,-0.002391197
29.00007,-0.002387035
29.10007,-0.002383081
29.20008,-0.002378885
29.30008,-0.002374884
29.40008,-0.002370973
29.50008,-0.002366753
29.60008,-0.002362831
29.70008,-0.002358916
29.80008,-0.002354879
29.90008,-0.002350964
30.00008,-0.002346875
30.10008,-0.002342861
30.20008,-0.002339044
30.30008,-0.002335077
30.40008,-0.002331194
30.50008,-0.002327462
30.60008,-0.002323979
30.70008,-0.002320562
30.80008,-0.002316666
30.90008,-0.002313116
31.00008,-0.002309508
31.10008,-0.002305669
31.20008,-0.002301865
31.30008,-0.002298025
31.40008,-0.002294017
31.50008,-0.00229022
31.60008,-0.002286431
31.70008,-0.00228248
31.80009,-0.002278637
31.90009,-0.002274792
32.00008,-0.002270956
32.10008,-0.002267358
32.20008,-0.002263461
32.30008,-0.002259888
32.40008,-0.002256269
32.50008,-0.002252414
32.60007,-0.002248596
32.70007,-0.00224502
32.80007,-0.002241323
32.90007,-0.002237601
33.00007,-0.002233917
33.10007,-0.002230116
33.20007,-0.002226271
33.30006,-0.002222547
33.40006,-0.002218859
33.50006,-0.002215167
33.60006,-0.002211379
33.70006,-0.002207798
33.80006,-0.002204204
33.90005,-0.002200409
34.00005,-0.002197269
34.10005,-0.002194014
34.20005,-0.0021903
34.30005,-0.002186748
34.40005,-0.002183215
34.50005,-0.002179583
34.60004,-0.002176092
34.70004,-0.002172587
34.80004,-0.002169102
34.90004,-0.002165793
35.00004,-0.002162342
35.10004,-0.002158925
35.20004,-0.002155414
35.30003,-0.002152092
35.40003,-0.002148943
35.50003,-0.002145509
35.60003,-0.002142354
35.70003,-0.002139014
35.80003,-0.002135487
35.90002,-0.00213216
36.00002,-0.002128741
36.10002,-0.002125216
36.20002,-0.002121976
36.30002,-0.002118603
36.40002,-0.002115275
36.50002,-0.002112039
36.60001,-0.002108669
36.70001,-0.002105424
36.80001,-0.002102133
36.90001,-0.00209876
37.00001,-0.002095555
37.10001,-0.002092233
37.2,-0.002089025
37.3,-0.002085936
37.4,-0.002082673
37.5,-0.002079424
37.6,-0.002076383
37.7,-0.002073159
37.8,-0.002070135
37.89999,-0.002066941
37.99999,-0.002063899
38.09999,-0.002060746
38.19999,-0.002057594
38.29999,-0.002054419
38.39999,-0.002051345
38.49998,-0.002048157
38.59998,-0.002045091
38.69998,-0.002041972
38.79998,-0.002038796
38.89998,-0.002035674
38.99998,-0.002032739
39.09998,-0.002029641
39.19997,-0.002026679
39.29997,-0.002023597
39.39997,-0.002020477
39.49997,-0.002017632
39.59997,-0.002014453
39.69997,-0.002011546
39.79996,-0.002008658
39.89996,-0.00200566
39.99996,-0.002002717
40.09996,-0.001999703
40.19996,-0.00199671
40.29996,-0.001993735
40.39996,-0.001990662
40.49995,-0.001987669
40.59995,-0.001984729
40.69995,-0.001981593
40.79995,-0.00197854
40.89995,-0.001975622
40.99995,-0.001972521
41.09995,-0.001969521
41.19994,-0.001966672
41.29994,-0.00196353
41.39994,-0.00196076
41.49994,-0.001957837
41.59994,-0.001954962
41.69994,-0.001952098
41.79993,-0.001949199
41.89993,-0.001946302
41.99993,-0.001943475
42.09993,-0.001940461
42.19993,-0.001937694
42.29993,-0.001934862
42.39993,-0.001931972
42.49992,-0.001929258
42.59992,-0.001926358
42.69992,-0.001923693
42.79992,-0.001921026
42.89992,-0.001918084
42.99992,-0.001915202
43.09991,-0.001912438
43.19991,-0.001909538
43.29991,-0.001906872
43.39991,-0.001903939
43.49991,-0.001901167
43.59991,-0.001898465
43.69991,-0.001895622
43.7999,-0.001892841
43.8999,-0.001890101
43.9999,-0.001887415
44.0999,-0.00188458
44.1999,-0.001881729
44.2999,-0.001878891
44.39989,-0.001876082
44.49989,-0.001873359
44.59989,-0.001870547
44.69989,-0.001867839
44.79989,-0.001865175
44.89989,-0.00186225
44.99989,-0.001859716
45.09988,-0.00185702
45.19988,-0.001854519
45.29988,-0.001851911
45.39988,-0.001849127
45.49988,-0.001846415
45.59988,-0.001843752
45.69987,-0.001841132
45.79987,-0.001838424
45.89987,-0.001835698
45.99987,-0.001833072
46.09987,-0.001830449
46.19987,-0.001827821
46.29987,-0.001825006
46.39986,-0.001822499
46.49986,-0.001819801
46.59986,-0.001817254
46.69986,-0.001814653
46.79986,-0.001811944
46.89986,-0.001809367
46.99986,-0.001806738
47.09985,-0.001804192
47.19985,-0.001801667
47.29985,-0.001799022
47.39985,-0.001796553
47.49985,-0.001794029
47.59985,-0.001791449
47.69984,-0.001788977
47.79984,-0.001786302
47.89984,-0.001783744
47.99984,-0.001781294
48.09984,-0.001778682
48.19984,-0.00177606
48.29984,-0.001773584
48.39983,-0.001770949
48.49983,-0.001768436
48.59983,-0.001765994
48.69983,-0.001763531
48.79983,-0.001761129
48.89983,-0.001758627
48.99982,-0.001756084
49.09982,-0.001753662
49.19982,-0.00175105
49.29982,-0.001748582
49.39982,-0.0017462
49.49982,-0.001743691
49.59982,-0.001741265
49.69981,-0.001738836
49.79981,-0.001736197
49.89981,-0.001733889
49.99981,-0.001731468
50.09981,-0.001729065
50.19981,-0.001726695
50.2998,-0.001724288
50.3998,-0.001721812
50.4998,-0.00171936
50.5998,-0.00171691
50.6998,-0.001714616
50.7998,-0.00171217
50.8998,-0.001709644
50.99979,-0.001707299
51.09979,-0.001704923
51.19979,-0.001702385
51.29979,-0.001700053
51.39979,-0.001697678
51.49979,-0.001695316
51.59978,-0.001693009
51.69978,-0.001690542
51.79978,-0.001688148
51.89978,-0.001685836
51.99978,-0.001683547
52.09978,-0.001681187
52.19978,-0.001678821
52.29977,-0.001676524
52.39977,-0.001674213
52.49977,-0.001672043
52.59977,-0.001669569
52.69977,-0.001667343
52.79977,-0.001664905
52.89977,-0.001662663
52.99976,-0.001660353
53.09976,-0.001658014
53.19976,-0.001655681
53.29976,-0.001653403
53.39976,-0.001651031
53.49976,-0.001648847
53.59975,-0.001646581
53.69975,-0.001644349
53.79975,-0.001642016
53.89975,-0.00163988
53.99975,-0.001637509
54.09975,-0.001635431
54.19975,-0.001633091
54.29974,-0.001630881
54.39974,-0.001628702
54.49974,-0.00162638
54.59974,-0.001624267
54.69974,-0.001621887
54.79974,-0.001619672
54.89973,-0.001617505
54.99973,-0.001615319
55.09973,-0.001613068
55.19973,-0.001610819
55.29973,-0.001608601
55.39973,-0.001606372
55.49973,-0.001604046
55.59972,-0.001601783
55.69972,-0.001599655
55.79972,-0.001597327
55.89972,-0.001595106
55.99972,-0.001592938
56.09972,-0.001590719
56.19971,-0.00158858
56.29971,-0.001586396
56.39971,-0.001584138
56.49971,-0.001581893
56.59971,-0.001579719
56.69971,-0.00157743
56.79971,-0.001575296
56.8997,-0.001573102
56.9997,-0.001570938
57.0997,-0.001568823
57.1997,-0.001566664
57.2997,-0.001564571
57.3997,-0.001562419
57.49969,-0.001560367
57.59969,-0.001558242
57.69969,-0.001556158
57.79969,-0.001554019
57.89969,-0.001551876
57.99969,-0.001549811
58.09969,-0.001547661
58.19968,-0.001545595
58.29968,-0.0015435
58.39968,-0.001541379
58.49968,-0.001539399
58.59968,-0.001537406
58.69968,-0.001535256
58.79967,-0.00153327
58.89967,-0.001531211
58.99967,-0.001529187
59.09967,-0.001527303
59.19967,-0.001525192
59.29967,-0.001523094
59.39967,-0.00152116
59.49966,-0.001519039
59.59966,-0.001517063
59.69966,-0.001515064
59.79966,-0.001513042
59.89966,-0.001511039
59.99966,-0.001508925
60.09966,-0.001506987
60.19965,-0.001504922
60.29965,-0.001502806
60.39965,-0.001500831
60.49965,-0.001498865
60.59965,-0.001496677
60.69965,-0.00149472
60.79964,-0.001492686
60.89964,-0.001490706
60.99964,-0.001488894
61.09964,-0.001486832
61.19964,-0.001484785
61.29964,-0.001482825
61.39964,-0.001480882
61.49963,-0.001478818
61.59963,-0.001476971
61.69963,-0.001474958
61.79963,-0.00147295
61.89963,-0.001470988
61.99963,-0.001468956
62.09962,-0.001466848
62.19962,-0.001464938
62.29962,-0.001462961
62.39962,-0.001461023
62.49962,-0.001459054
62.59962,-0.001457091
62.69962,-0.001455151
62.79961,-0.001453162
62.89961,-0.00145123
62.99961,-0.001449321
63.09961,-0.001447354
63.19961,-0.001445404
63.29961,-0.001443447
63.3996,-0.001441585
63.4996,-0.001439633
63.5996,-0.001437877
63.6996,-0.001435936
63.7996,-0.001434083
63.8996,-0.001432276
63.9996,-0.001430314
64.09959,-0.001428525
64.19959,-0.001426563
64.29959,-0.00142468
64.39959,-0.001422876
64.49959,-0.001420909
64.59959,-0.001419129
64.69958,-0.001417216
64.79958,-0.001415352
64.89958,-0.001413491
64.99958,-0.001411591
65.09958,-0.001409735
65.19958,-0.001407839
65.29958,-0.001405954
65.39957,-0.001404134
65.49957,-0.001402289
65.59957,-0.001400377
65.69957,-0.001398614
65.79957,-0.00139674
65.89957,-0.001394931
65.99957,-0.001393144
66.09956,-0.001391253
66.19956,-0.001389345
66.29956,-0.001387622
66.39956,-0.001385785
66.49956,-0.001383956
66.59956,-0.001382348
66.69955,-0.001380476
66.79955,-0.001378676
66.89955,-0.001376903
66.99955,-0.001375103
67.09955,-0.001373308
67.19955,-0.001371578
67.29955,-0.00136984
67.39954,-0.001368022
67.49954,-0.001366177
67.59954,-0.001364463
67.69954,-0.001362743
67.79954,-0.001360878
67.89954,-0.001359113
67.99953,-0.001357376
68.09953,-0.001355558
68.19953,-0.001353869
68.29953,-0.001352112
68.39953,-0.001350404
68.49953,-0.001348694
68.59953,-0.001346926
68.69952,-0.001345113
68.79952,-0.001343381
68.89952,-0.001341601
68.99952,-0.001339896
69.09952,-0.001338163
69.19952,-0.001336408
69.29951,-0.001334631
69.39951,-0.001332838
69.49951,-0.001331097
69.59951,-0.00132939
69.69951,-0.001327623
69.79951,-0.001326
69.89951,-0.001324344
69.9995,-0.001322551
70.0995,-0.001320877
70.1995,-0.001319187
70.2995,-0.001317358
70.3995,-0.001315724
70.4995,-0.001313962
70.59949,-0.001312171
70.69949,-0.001310545
70.79949,-0.001308853
70.89949,-0.001307066
70.99949,-0.001305465
71.09949,-0.001303828
71.19949,-0.001302127
71.29948,-0.001300516
71.39948,-0.001298874
71.49948,-0.00129719
71.59948,-0.001295607
71.69948,-0.00129396
71.79948,-0.001292168
71.89948,-0.001290623
71.99947,-0.001288955
72.09947,-0.001287153
72.19947,-0.001285595
72.29947,-0.001283928
72.39947,-0.001282355
72.49947,-0.001280717
72.59946,-0.001279128
72.69946,-0.001277556
72.79946,-0.001275938
72.89946,-0.001274317
72.99946,-0.00127264
73.09946,-0.001270999
73.19946,-0.001269435
73.29945,-0.001267687
73.39945,-0.001266067
73.49945,-0.001264391
73.59945,-0.001262678
73.69945,-0.00126101
73.79945,-0.001259449
73.89944,-0.001257724
73.99944,-0.001256097
74.09944,-0.001254507
74.19944,-0.001252831
74.29944,-0.001251218
74.39944,-0.001249625
74.49944,-0.001248038
74.59943,-0.001246534
74.69943,-0.001245003
74.79943,-0.001243426
74.89943,-0.001241825
74.99943,-0.001240419
75.09943,-0.001238976
75.19942,-0.001237501
75.29942,-0.001235789
75.39942,-0.001234367
75.49942,-0.00123277
75.59942,-0.001231126
75.69942,-0.001229564
75.79942,-0.001228007
75.89941,-0.00122647
75.99941,-0.001224956
76.09941,-0.001223347
76.19941,-0.001221768
76.29941,-0.001220225
76.39941,-0.001218666
76.4994,-0.001217088
76.5994,-0.001215565
76.6994,-0.00121398
76.7994,-0.001212546
76.8994,-0.001210962
76.9994,-0.001209381
77.0994,-0.001208
77.19939,-0.001206459
77.29939,-0.001205026
77.39939,-0.001203572
77.49939,-0.001202071
77.59939,-0.001200626
77.69939,-0.001199138
77.79939,-0.001197595
77.89938,-0.001196091
77.99938,-0.001194545
78.09938,-0.001192953
78.19938,-0.001191475
78.29938,-0.001189905
78.39938,-0.001188347
78.49937,-0.001186809
78.59937,-0.001185283
78.69937,-0.00118384
78.79937,-0.001182413
78.89937,-0.001180864
78.99937,-0.001179372
79.09937,-0.00117789
79.19936,-0.001176448
79.29936,-0.001175034
79.39936,-0.001173581
79.49936,-0.001172108
79.59936,-0.001170721
79.69936,-0.001169221
79.79935,-0.00116774
79.89935,-0.001166409
79.99935,-0.001164928
80.09935,-0.001163552
80.19935,-0.001162128
80.29935,-0.001160659
80.39935,-0.001159131
80.49934,-0.001157761
80.59934,-0.001156287
80.69934,-0.001154794
80.79934,-0.001153337
80.89934,-0.001151942
80.99934,-0.001150547
81.09933,-0.001149097
81.19933,-0.001147626
81.29933,-0.001146221
81.39933,-0.001144866
81.49933,-0.001143505
81.59933,-0.001142052
81.69933,-0.001140662
81.79932,-0.001139235
81.89932,-0.00113782
81.99932,-0.001136482
82.09932,-0.001135094
82.19932,-0.001133602
82.29932,-0.001132239
82.39931,-0.00113088
82.49931,-0.001129408
82.59931,-0.001128027
82.69931,-0.001126661
82.79931,-0.001125201
82.89931,-0.001123902
82.99931,-0.001122541
83.0993,-0.001121099
83.1993,-0.001119726
83.2993,-0.001118375
83.3993,-0.001116909
83.4993,-0.001115602
83.5993,-0.001114251
83.6993,-0.001112857
83.79929,-0.001111547
83.89929,-0.001110168
83.99929,-0.00110878
84.09929,-0.001107469
84.19929,-0.001106075
84.29929,-0.0011048
84.39928,-0.001103427
84.49928,-0.001102131
84.59928,-0.001100772
84.69928,-0.001099423
84.79928,-0.00109809
84.89928,-0.00109683
84.99928,-0.001095396
85.09927,-0.001094123
85.19927,-0.001092758
85.29927,-0.001091349
85.39927,-0.001090056
85.49927,-0.001088834
85.59927,-0.00108739
85.69926,-0.001086122
85.79926,-0.001084841
85.89926,-0.001083438
85.99926,-0.001082093
86.09926,-0.001080838
86.19926,-0.001079495
86.29926,-0.001078186
86.39925,-0.001076874
86.49925,-0.001075506
86.59925,-0.001074239
86.69925,-0.001072963
86.79925,-0.001071597
86.89925,-0.001070365
86.99924,-0.00106914
87.09924,-0.001067871
87.19924,-0.001066596
87.29924,-0.001065245
87.39924,-0.001063962
87.49924,-0.001062665
87.59924,-0.001061378
87.69923,-0.001060096
87.79923,-0.001058798
87.89923,-0.00105753
87.99923,-0.001056327
88.09923,-0.001055031
88.19923,-0.001053759
88.29922,-0.001052523
88.39922,-0.001051242
88.49922,-0.00105002
88.59922,-0.001048776
88.69922,-0.001047464
88.79922,-0.001046298
88.89922,-0.001045081
88.99921,-0.001043764
89.09921,-0.001042722
89.19921,-0.001041531
89.29921,-0.001040227
89.39921,-0.001038964
89.49921,-0.001037765
89.59921,-0.001036481
89.6992,-0.001035249
89.7992,-0.001033948
89.8992,-0.001032681
89.9992,-0.001031434
90.0992,-0.001030116
90.1992,-0.001028887
90.29919,-0.001027638
90.39919,-0.001026436
90.49919,-0.001025186
90.59919,-0.001023925
90.69919,-0.001022738
90.79919,-0.001021498
90.89919,-0.001020184
90.99918,-0.001019055
91.09918,-0.001017895
91.19918,-0.001016635
91.29918,-0.00101543
91.39918,-0.001014246
91.49918,-0.001012972
91.59917,-0.001011784
91.69917,-0.001010635
91.79917,-0.001009455
91.89917,-0.001008255
91.99917,-0.001007012
92.09917,-0.001005791
