EXPID. 0631
[电化学]: i-t : @ 0(V) X 600(sec)
起始电位 (V),0
静置时间 (秒),0
运行时间 (秒),600
记录间隔,0.1
电解液 信息:
HNO3,0.4
0.1,-0.01005814
0.2,-0.01005814
0.3,-0.01005814
0.4,-0.01005814
0.5,-0.01005814
0.6,-0.01005814
0.7,-0.01005814
0.8000001,-0.01005814
0.9000001,-0.01005814
1,0.003420985
1.1,0.00459331
1.2,0.0004926576
1.3,-0.002592738
1.4,-0.003951279
1.5,-0.004247753
1.6,-0.004270832
1.7,-0.004254658
1.8,-0.004215294
1.9,-0.004156678
2,-0.004069732
2.1,-0.003964113
2.2,-0.003853663
2.3,-0.003748991
2.4,-0.003638042
2.5,-0.003537424
2.6,-0.003440785
2.7,-0.003346007
2.799999,-0.003257032
2.899999,-0.003171188
2.999999,-0.003084019
3.099999,-0.002998573
3.199999,-0.002910775
3.299999,-0.00281954
3.399999,-0.002735221
3.499999,-0.002651717
3.599999,-0.002570579
3.699999,-0.002501339
3.799999,-0.002432677
3.899998,-0.002369415
3.999998,-0.002314109
4.099998,-0.002261776
4.199998,-0.002212743
4.299998,-0.002168707
4.399998,-0.002126578
4.499998,-0.002087974
4.599998,-0.002051631
4.699998,-0.00201694
4.799998,-0.001984976
4.899998,-0.001955333
4.999998,-0.001925927
5.099998,-0.001898392
5.199997,-0.001873397
5.299997,-0.001848252
5.399997,-0.001824285
5.499997,-0.001801924
5.599997,-0.001780318
5.699997,-0.001759708
5.799997,-0.001739982
5.899997,-0.001720801
5.999997,-0.001702553
6.099997,-0.001685033
6.199996,-0.00166817
6.299996,-0.00165184
6.399996,-0.001636247
6.499996,-0.001620798
6.599996,-0.001606382
6.699996,-0.001592294
6.799996,-0.001578221
6.899996,-0.001565185
6.999996,-0.001552406
7.099996,-0.001539477
7.199996,-0.001527432
7.299995,-0.001515702
7.399995,-0.001503906
7.499995,-0.001492459
7.599995,-0.001481783
7.699995,-0.001470734
7.799995,-0.001460585
7.899995,-0.001450501
7.999995,-0.001440063
8.099995,-0.001430567
8.199995,-0.001421188
8.299995,-0.001411728
8.399996,-0.001402809
8.499996,-0.001394213
8.599997,-0.001385462
8.699997,-0.00137696
8.799997,-0.001368956
8.899998,-0.0013604
8.999998,-0.001352967
9.099998,-0.001344978
9.199999,-0.001337039
9.299999,-0.001329789
9.4,-0.001322341
9.5,-0.0013149
9.6,-0.001307956
9.700001,-0.001300916
9.800001,-0.001294002
9.900002,-0.001287394
10,-0.001280783
10.1,-0.00127423
10.2,-0.001267894
10.3,-0.001261228
10.4,-0.00125522
10.5,-0.001249119
10.6,-0.001242977
10.7,-0.001237061
10.8,-0.001231321
10.90001,-0.001225269
11.00001,-0.001219699
11.10001,-0.001214223
11.20001,-0.001208568
11.30001,-0.001203286
11.40001,-0.00119824
11.50001,-0.001192456
11.60001,-0.001187541
11.70001,-0.001182475
11.80001,-0.001177521
11.90001,-0.001172904
12.00001,-0.001167965
12.10001,-0.001163158
12.20001,-0.001158243
12.30001,-0.001153543
12.40001,-0.001148926
12.50001,-0.001144127
12.60001,-0.001139458
12.70001,-0.001135001
12.80001,-0.001130482
12.90001,-0.001125893
13.00001,-0.001121516
13.10001,-0.00111707
13.20001,-0.00111277
13.30001,-0.001108756
13.40001,-0.001104621
13.50002,-0.001100556
13.60002,-0.001096714
13.70002,-0.00109264
13.80002,-0.0010889
13.90002,-0.001085001
14.00002,-0.001080856
14.10002,-0.00107713
14.20002,-0.00107331
14.30002,-0.001069397
14.40002,-0.00106576
14.50002,-0.001062019
14.60002,-0.001058005
14.70002,-0.001054326
14.80002,-0.001050696
14.90002,-0.001046946
15.00002,-0.001043444
15.10002,-0.001039909
15.20002,-0.001036156
15.30002,-0.001032684
15.40002,-0.001029196
15.50002,-0.001025638
15.60002,-0.001022325
15.70002,-0.001018811
15.80002,-0.001015367
15.90002,-0.001012097
16.00002,-0.001008942
16.10003,-0.001005547
16.20003,-0.001002514
16.30003,-0.0009992785
16.40003,-0.0009960427
16.50003,-0.0009929114
16.60003,-0.0009897585
16.70003,-0.0009866141
16.80003,-0.0009834715
16.90003,-0.0009803986
17.00003,-0.0009774049
17.10003,-0.000974317
17.20003,-0.0009712638
17.30003,-0.0009683039
17.40003,-0.0009652838
17.50003,-0.000962293
17.60003,-0.0009594423
17.70003,-0.0009566341
17.80003,-0.0009536177
17.90003,-0.0009508819
18.00003,-0.0009480134
18.10003,-0.0009453634
18.20003,-0.0009424873
18.30003,-0.0009397319
18.40003,-0.0009369896
18.50003,-0.0009343725
18.60003,-0.0009316339
18.70004,-0.0009289453
18.80004,-0.0009263498
18.90004,-0.0009237083
19.00004,-0.0009211101
19.10004,-0.0009185731
19.20004,-0.0009158665
19.30004,-0.0009134736
19.40004,-0.0009110608
19.50004,-0.0009083731
19.60004,-0.0009061196
19.70004,-0.0009036532
19.80004,-0.0009010775
19.90004,-0.0008987213
20.00004,-0.0008966674
20.10004,-0.0008941831
20.20004,-0.0008919258
20.30004,-0.0008895941
20.40004,-0.0008871945
20.50004,-0.0008849448
20.60004,-0.0008826309
20.70004,-0.0008802013
20.80004,-0.0008780334
20.90004,-0.0008756611
21.00004,-0.000873288
21.10004,-0.0008711229
21.20004,-0.0008689805
21.30005,-0.0008667863
21.40005,-0.0008646052
21.50005,-0.0008623714
21.60005,-0.0008602111
21.70005,-0.0008580979
21.80005,-0.0008558613
21.90005,-0.0008537536
22.00005,-0.0008517017
22.10005,-0.0008495027
22.20005,-0.0008473593
22.30005,-0.0008452659
22.40005,-0.0008431234
22.50005,-0.0008410761
22.60005,-0.0008389694
22.70005,-0.0008368948
22.80005,-0.0008348748
22.90005,-0.0008329038
23.00005,-0.0008308347
23.10005,-0.000828875
23.20005,-0.0008268136
23.30005,-0.000824997
23.40005,-0.0008231399
23.50005,-0.0008211208
23.60005,-0.0008191093
23.70005,-0.0008173209
23.80005,-0.0008153584
23.90005,-0.0008135295
24.00006,-0.0008116442
24.10006,-0.0008097776
24.20006,-0.000807913
24.30006,-0.0008061011
24.40006,-0.0008042064
24.50006,-0.0008022626
24.60006,-0.0008005722
24.70006,-0.000798733
24.80006,-0.0007969061
24.90006,-0.0007951676
25.00006,-0.0007932399
25.10006,-0.0007915015
25.20006,-0.0007897367
25.30006,-0.0007878645
25.40006,-0.0007861345
25.50006,-0.0007844206
25.60006,-0.0007826615
25.70006,-0.0007809202
25.80006,-0.0007792279
25.90006,-0.0007774056
26.00006,-0.0007757143
26.10006,-0.0007742385
26.20006,-0.0007724249
26.30006,-0.0007707419
26.40006,-0.0007691184
26.50006,-0.0007673922
26.60007,-0.0007656341
26.70007,-0.0007639898
26.80007,-0.0007623417
26.90007,-0.0007607493
27.00007,-0.0007590663
27.10007,-0.0007574353
27.20007,-0.0007558682
27.30007,-0.0007544001
27.40007,-0.0007527266
27.50007,-0.0007512104
27.60007,-0.0007495878
27.70007,-0.0007479567
27.80007,-0.0007464566
27.90007,-0.0007449131
28.00007,-0.0007433395
28.10007,-0.0007417884
28.20007,-0.0007402562
28.30007,-0.0007387702
28.40007,-0.000737384
28.50007,-0.0007358593
28.60007,-0.0007343214
28.70007,-0.0007328062
28.80007,-0.0007313606
28.90007,-0.0007299188
29.00007,-0.0007284497
29.10007,-0.0007269222
29.20008,-0.0007254852
29.30008,-0.0007241092
29.40008,-0.0007226355
29.50008,-0.0007212153
29.60008,-0.0007197726
29.70008,-0.0007182583
29.80008,-0.0007168015
29.90008,-0.0007154247
30.00008,-0.0007139565
30.10008,-0.0007125749
30.20008,-0.0007111275
30.30008,-0.0007097027
30.40008,-0.0007083183
30.50008,-0.0007070366
30.60008,-0.000705657
30.70008,-0.0007041747
30.80008,-0.0007030108
30.90008,-0.0007016584
31.00008,-0.0007002863
31.10008,-0.0006988887
31.20008,-0.0006976787
31.30008,-0.0006963621
31.40008,-0.0006950108
31.50008,-0.0006936847
31.60008,-0.0006923908
31.70008,-0.000691062
31.80009,-0.0006897878
31.90009,-0.0006885853
32.00008,-0.0006872076
32.10008,-0.0006859277
32.20008,-0.000684792
32.30008,-0.0006834312
32.40008,-0.0006823312
32.50008,-0.0006811013
32.60007,-0.0006798583
32.70007,-0.0006787037
32.80007,-0.0006775924
32.90007,-0.0006763946
33.00007,-0.0006751873
33.10007,-0.0006739988
33.20007,-0.0006728273
33.30006,-0.0006716162
33.40006,-0.0006703995
33.50006,-0.000669212
33.60006,-0.0006680122
33.70006,-0.0006668162
33.80006,-0.0006655732
33.90005,-0.0006644543
34.00005,-0.0006632282
34.10005,-0.000662004
34.20005,-0.0006608409
34.30005,-0.0006596459
34.40005,-0.0006583877
34.50005,-0.0006572285
34.60004,-0.0006561002
34.70004,-0.0006548901
34.80004,-0.0006537704
34.90004,-0.0006526046
35.00004,-0.0006513916
35.10004,-0.0006502963
35.20004,-0.0006491211
35.30003,-0.0006479938
35.40003,-0.0006468723
35.50003,-0.0006457149
35.60003,-0.0006445781
35.70003,-0.0006435037
35.80003,-0.0006424009
35.90002,-0.000641234
36.00002,-0.0006401474
36.10002,-0.0006391001
36.20002,-0.0006378891
36.30002,-0.0006368645
36.40002,-0.0006357579
36.50002,-0.0006346702
36.60001,-0.0006336136
36.70001,-0.0006324751
36.80001,-0.0006314165
36.90001,-0.0006303571
37.00001,-0.0006293014
37.10001,-0.0006282439
37.2,-0.0006271609
37.3,-0.0006261334
37.4,-0.000625075
37.5,-0.0006240899
37.6,-0.0006230154
37.7,-0.0006219258
37.8,-0.0006209116
37.89999,-0.0006199096
37.99999,-0.0006189311
38.09999,-0.0006179328
38.19999,-0.0006169892
38.29999,-0.0006160136
38.39999,-0.0006149485
38.49998,-0.0006140312
38.59998,-0.0006130029
38.69998,-0.000611887
38.79998,-0.0006109264
38.89998,-0.0006100166
38.99998,-0.0006089638
39.09998,-0.0006079693
39.19997,-0.0006070304
39.29997,-0.0006059973
39.39997,-0.0006050772
39.49997,-0.0006041845
39.59997,-0.0006031316
39.69997,-0.0006021654
39.79996,-0.0006012463
39.89996,-0.0006002227
39.99996,-0.0005993308
40.09996,-0.0005984089
40.19996,-0.0005974709
40.29996,-0.0005965442
40.39996,-0.0005956449
40.49995,-0.0005947351
40.59995,-0.0005937549
40.69995,-0.0005928724
40.79995,-0.0005918949
40.89995,-0.0005910388
40.99995,-0.0005901329
41.09995,-0.0005891742
41.19994,-0.0005883022
41.29994,-0.0005873934
41.39994,-0.0005864291
41.49994,-0.0005855816
41.59994,-0.0005847651
41.69994,-0.0005837546
41.79993,-0.0005829767
41.89993,-0.0005821461
41.99993,-0.000581178
42.09993,-0.0005803775
42.19993,-0.0005795639
42.29993,-0.0005786156
42.39993,-0.0005777736
42.49992,-0.0005769477
42.59992,-0.0005759843
42.69992,-0.0005751217
42.79992,-0.0005743344
42.89992,-0.0005733607
42.99992,-0.000572579
43.09991,-0.0005717447
43.19991,-0.0005708651
43.29991,-0.0005700534
43.39991,-0.0005691898
43.49991,-0.0005683102
43.59991,-0.0005674758
43.69991,-0.0005666537
43.7999,-0.0005658456
43.8999,-0.0005649708
43.9999,-0.0005641204
44.0999,-0.0005632908
44.1999,-0.0005624375
44.2999,-0.0005616032
44.39989,-0.0005608018
44.49989,-0.0005598902
44.59989,-0.0005591829
44.69989,-0.0005584729
44.79989,-0.0005576017
44.89989,-0.0005567081
44.99989,-0.000555982
45.09988,-0.00055514
45.19988,-0.0005543359
45.29988,-0.0005535024
45.39988,-0.0005527123
45.49988,-0.0005519334
45.59988,-0.0005511791
45.69987,-0.0005503617
45.79987,-0.0005495641
45.89987,-0.0005487947
45.99987,-0.0005479594
46.09987,-0.0005472616
46.19987,-0.0005464592
46.29987,-0.0005456257
46.39986,-0.0005448752
46.49986,-0.0005441303
46.59986,-0.0005433307
46.69986,-0.0005426056
46.79986,-0.0005419332
46.89986,-0.0005411045
46.99986,-0.0005403097
47.09985,-0.0005396091
47.19985,-0.0005388293
47.29985,-0.0005380778
47.39985,-0.0005373451
47.49985,-0.0005365588
47.59985,-0.0005357978
47.69984,-0.0005350896
47.79984,-0.0005343325
47.89984,-0.0005335942
47.99984,-0.000532853
48.09984,-0.0005320959
48.19984,-0.0005313623
48.29984,-0.0005307172
48.39983,-0.0005299374
48.49983,-0.0005292019
48.59983,-0.0005285041
48.69983,-0.0005278204
48.79983,-0.0005271189
48.89983,-0.0005264041
48.99982,-0.0005256535
49.09982,-0.0005249566
49.19982,-0.0005242023
49.29982,-0.0005234799
49.39982,-0.000522769
49.49982,-0.0005220429
49.59982,-0.000521314
49.69981,-0.000520636
49.79981,-0.0005199222
49.89981,-0.0005191904
49.99981,-0.0005185821
50.09981,-0.0005177947
50.19981,-0.0005171328
50.2998,-0.000516449
50.3998,-0.0005157465
50.4998,-0.0005150553
50.5998,-0.0005143828
50.6998,-0.0005136455
50.7998,-0.0005129731
50.8998,-0.0005123393
50.99979,-0.0005116575
51.09979,-0.0005109549
51.19979,-0.0005102326
51.29979,-0.0005096591
51.39979,-0.0005090828
51.49979,-0.0005083557
51.59978,-0.0005076081
51.69978,-0.0005069987
51.79978,-0.0005063037
51.89978,-0.000505637
51.99978,-0.0005050258
52.09978,-0.000504312
52.19978,-0.0005036368
52.29977,-0.0005029813
52.39977,-0.0005022977
52.49977,-0.0005016385
52.59977,-0.0005010611
52.69977,-0.000500385
52.79977,-0.0004997672
52.89977,-0.0004991174
52.99976,-0.0004984281
53.09976,-0.0004978235
53.19976,-0.0004972095
53.29976,-0.0004965559
53.39976,-0.0004959052
53.49976,-0.0004953985
53.59975,-0.0004947073
53.69975,-0.0004940434
53.79975,-0.000493387
53.89975,-0.0004927466
53.99975,-0.0004921496
54.09975,-0.0004915713
54.19975,-0.000490898
54.29974,-0.0004902859
54.39974,-0.0004896474
54.49974,-0.0004890146
54.59974,-0.000488393
54.69974,-0.0004877705
54.79974,-0.0004871716
54.89973,-0.0004865425
54.99973,-0.0004859134
55.09973,-0.0004852862
55.19973,-0.0004846939
55.29973,-0.0004840516
55.39973,-0.000483416
55.49973,-0.0004828377
55.59972,-0.0004822265
55.69972,-0.0004816398
55.79972,-0.0004810268
55.89972,-0.0004803798
55.99972,-0.0004797771
56.09972,-0.0004792055
56.19971,-0.0004785773
56.29971,-0.0004779501
56.39971,-0.0004773691
56.49971,-0.0004768408
56.59971,-0.0004762117
56.69971,-0.0004756476
56.79971,-0.0004750081
56.8997,-0.0004744252
56.9997,-0.0004738498
57.0997,-0.0004732998
57.1997,-0.0004726934
57.2997,-0.0004721123
57.3997,-0.0004715756
57.49969,-0.0004710557
57.59969,-0.0004704181
57.69969,-0.000469904
57.79969,-0.0004693267
57.89969,-0.0004686976
57.99969,-0.0004681552
58.09969,-0.0004676184
58.19968,-0.0004670675
58.29968,-0.000466525
58.39968,-0.0004659798
58.49968,-0.0004653827
58.59968,-0.0004648441
58.69968,-0.0004642799
58.79967,-0.0004636867
58.89967,-0.0004631178
58.99967,-0.000462631
59.09967,-0.0004620461
59.19967,-0.0004614962
59.29967,-0.0004609942
59.39967,-0.0004604405
59.49966,-0.0004599178
59.59966,-0.0004593255
59.69966,-0.0004588386
59.79966,-0.0004582736
59.89966,-0.0004577519
59.99966,-0.0004571831
60.09966,-0.0004566519
60.19965,-0.0004561274
60.29965,-0.0004555784
60.39965,-0.0004550453
60.49965,-0.0004544907
60.59965,-0.0004540085
60.69965,-0.0004534811
60.79964,-0.0004529566
60.89964,-0.0004524075
60.99964,-0.0004519122
61.09964,-0.000451399
61.19964,-0.0004508687
61.29964,-0.0004503385
61.39964,-0.0004499073
61.49963,-0.000449442
61.59963,-0.0004488591
61.69963,-0.0004483392
61.79963,-0.0004478364
61.89963,-0.0004472723
61.99963,-0.0004467675
62.09962,-0.0004462627
62.19962,-0.000445694
62.29962,-0.0004451948
62.39962,-0.0004446345
62.49962,-0.0004441156
62.59962,-0.0004436419
62.69962,-0.0004431108
62.79961,-0.0004425797
62.89961,-0.0004421474
62.99961,-0.0004416831
63.09961,-0.0004412471
63.19961,-0.0004408149
63.29961,-0.0004403195
63.3996,-0.0004397903
63.4996,-0.0004393344
63.5996,-0.000438857
63.6996,-0.0004383936
63.7996,-0.0004379039
63.8996,-0.0004373483
63.9996,-0.000436869
64.09959,-0.0004364066
64.19959,-0.0004358773
64.29959,-0.0004353387
64.39959,-0.0004349431
64.49959,-0.0004344007
64.59959,-0.0004339204
64.69958,-0.0004334326
64.79958,-0.000432909
64.89958,-0.0004323976
64.99958,-0.0004319089
65.09958,-0.0004314361
65.19958,-0.0004309285
65.29958,-0.0004304379
65.39957,-0.0004299369
65.49957,-0.0004294406
65.59957,-0.0004289688
65.69957,-0.0004284951
65.79957,-0.0004280082
65.89957,-0.0004275063
65.99957,-0.0004270731
66.09956,-0.0004265966
66.19956,-0.0004260852
66.29956,-0.0004256341
66.39956,-0.0004251595
66.49956,-0.0004246707
66.59956,-0.0004241895
66.69955,-0.0004238072
66.79955,-0.0004232817
66.89955,-0.0004227891
66.99955,-0.000422371
67.09955,-0.0004218729
67.19955,-0.0004214048
67.29955,-0.0004209885
67.39954,-0.0004204942
67.49954,-0.0004200383
67.59954,-0.0004196174
67.69954,-0.0004191635
67.79954,-0.0004186672
67.89954,-0.000418234
67.99953,-0.0004177857
68.09953,-0.00041736
68.19953,-0.0004169109
68.29953,-0.0004163939
68.39953,-0.0004159833
68.49953,-0.000415551
68.59953,-0.0004150622
68.69952,-0.0004146366
68.79952,-0.0004142081
68.89952,-0.0004137325
68.99952,-0.0004133068
69.09952,-0.0004128887
69.19952,-0.0004124301
69.29951,-0.0004119441
69.39951,-0.0004115448
69.49951,-0.0004111587
69.59951,-0.0004107293
69.69951,-0.0004103536
69.79951,-0.0004099053
69.89951,-0.0004094439
69.9995,-0.0004089909
70.0995,-0.0004085587
70.1995,-0.0004080925
70.2995,-0.0004076574
70.3995,-0.0004072355
70.4995,-0.0004067741
70.59949,-0.0004063955
70.69949,-0.0004059256
70.79949,-0.0004054707
70.89949,-0.0004050337
70.99949,-0.0004046448
71.09949,-0.0004041777
71.19949,-0.0004037633
71.29948,-0.0004033264
71.39948,-0.0004028508
71.49948,-0.0004024515
71.59948,-0.0004020164
71.69948,-0.0004015324
71.79948,-0.0004011604
71.89948,-0.0004007658
71.99947,-0.0004003091
72.09947,-0.0003999098
72.19947,-0.0003994982
72.29947,-0.0003990396
72.39947,-0.0003986573
72.49947,-0.0003982759
72.59946,-0.0003978342
72.69946,-0.0003974245
72.79946,-0.0003970215
72.89946,-0.0003965572
72.99946,-0.0003962022
73.09946,-0.0003958151
73.19946,-0.0003953716
73.29945,-0.0003949582
73.39945,-0.0003945692
73.49945,-0.0003941501
73.59945,-0.0003937885
73.69945,-0.0003934071
73.79945,-0.000392924
73.89944,-0.000392568
73.99944,-0.0003921744
74.09944,-0.0003917676
74.19944,-0.0003913899
74.29944,-0.0003910208
74.39944,-0.0003906385
74.49944,-0.0003902448
74.59943,-0.0003898408
74.69943,-0.0003893982
74.79943,-0.0003889932
74.89943,-0.0003886599
74.99943,-0.0003882474
75.09943,-0.0003878415
75.19942,-0.0003874271
75.29942,-0.0003870457
75.39942,-0.0003866426
75.49942,-0.0003862877
75.59942,-0.0003858724
75.69942,-0.0003854731
75.79942,-0.0003851237
75.89941,-0.0003847677
75.99941,-0.0003843656
76.09941,-0.0003840105
76.19941,-0.0003835952
76.29941,-0.0003832091
76.39941,-0.0003828258
76.4994,-0.000382484
76.5994,-0.0003821233
76.6994,-0.0003817306
76.7994,-0.0003813276
76.8994,-0.0003809245
76.9994,-0.0003805506
77.0994,-0.0003801777
77.19939,-0.0003798142
77.29939,-0.0003794441
77.39939,-0.0003790561
77.49939,-0.000378669
77.59939,-0.0003783074
77.69939,-0.0003778996
77.79939,-0.0003775502
77.89938,-0.0003771801
77.99938,-0.000376778
78.09938,-0.0003763816
78.19938,-0.0003760444
78.29938,-0.000375679
78.39938,-0.0003752948
78.49937,-0.0003749077
78.59937,-0.0003745489
78.69937,-0.0003741836
78.79937,-0.0003738521
78.89937,-0.0003734688
78.99937,-0.0003730893
79.09937,-0.0003727333
79.19936,-0.0003723848
79.29936,-0.000371995
79.39936,-0.0003716484
79.49936,-0.0003712962
79.59936,-0.0003709224
79.69936,-0.000370604
79.79935,-0.0003702226
79.89935,-0.0003698064
79.99935,-0.0003694975
80.09935,-0.000369166
80.19935,-0.0003687988
80.29935,-0.0003684258
80.39935,-0.0003680736
80.49934,-0.0003676932
80.59934,-0.0003673391
80.69934,-0.0003670095
80.79934,-0.0003666186
80.89934,-0.000366273
80.99934,-0.0003659689
81.09933,-0.0003655545
81.19933,-0.0003652277
81.29933,-0.0003649066
81.39933,-0.0003645525
81.49933,-0.0003641899
81.59933,-0.0003638386
81.69933,-0.0003635269
81.79932,-0.0003631512
81.89932,-0.0003628112
81.99932,-0.0003624383
82.09932,-0.000362104
82.19932,-0.0003617781
82.29932,-0.0003614005
82.39931,-0.0003610973
82.49931,-0.0003607488
82.59931,-0.0003604616
82.69931,-0.000360131
82.79931,-0.000359776
82.89931,-0.0003594163
82.99931,-0.0003590518
83.0993,-0.0003587712
83.1993,-0.0003584397
83.2993,-0.0003580988
83.3993,-0.0003577899
83.4993,-0.0003574207
83.5993,-0.0003570893
83.6993,-0.0003567615
83.79929,-0.0003564338
83.89929,-0.0003560675
83.99929,-0.0003557576
84.09929,-0.0003554337
84.19929,-0.0003551267
84.29929,-0.0003548253
84.39928,-0.0003544882
84.49928,-0.0003541331
84.59928,-0.0003537753
84.69928,-0.0003534617
84.79928,-0.0003531434
84.89928,-0.0003528722
84.99928,-0.0003525736
85.09927,-0.0003521998
85.19927,-0.0003518504
85.29927,-0.000351534
85.39927,-0.0003512053
85.49927,-0.0003508795
85.59927,-0.0003505885
85.69926,-0.0003502108
85.79926,-0.0003499151
85.89926,-0.000349627
85.99926,-0.0003492842
86.09926,-0.0003489894
86.19926,-0.0003486674
86.29926,-0.0003483302
86.39925,-0.0003480204
86.49925,-0.0003477586
86.59925,-0.0003474186
86.69925,-0.0003470984
86.79925,-0.0003467952
86.89925,-0.0003464599
86.99924,-0.0003461595
87.09924,-0.000345894
87.19924,-0.0003455229
87.29924,-0.0003452272
87.39924,-0.0003449437
87.49924,-0.0003446123
87.59924,-0.0003443326
87.69923,-0.0003440294
87.79923,-0.0003437656
87.89923,-0.000343436
87.99923,-0.0003432307
88.09923,-0.0003428936
88.19923,-0.0003425357
88.29922,-0.0003422777
88.39922,-0.0003419914
88.49922,-0.0003416204
88.59922,-0.0003413671
88.69922,-0.0003410685
