EXPID. 0875
[电化学]: i-t : @ 0(V) X 600(sec)
起始电位 (V),0
静置时间 (秒),0
运行时间 (秒),600
记录间隔,0.1
电解液 信息:
HNO3,0.4
0.1,-0.01005814
0.2,-0.01005814
0.3,-0.01005814
0.4,-0.01005814
0.5,-0.01005814
0.6,-0.01005814
0.7,-0.01005814
0.8000001,-0.01005814
0.9000001,-0.01005814
1,-0.01005814
1.1,-0.01005814
1.2,-0.01005814
1.3,-0.01005814
1.4,-0.01005814
1.5,-0.01005814
1.6,-0.01005814
1.7,-0.01005814
1.8,-0.01005814
1.9,-0.01005814
2,-0.01005814
2.1,-0.01005814
2.2,-0.01005814
2.3,-0.01005814
2.4,-0.005401144
2.5,0.007652828
2.6,0.003902171
2.7,-0.0004054038
2.799999,-0.002872803
2.899999,-0.003692477
2.999999,-0.004007208
3.099999,-0.004327583
3.199999,-0.004706725
3.299999,-0.005035352
3.399999,-0.005241758
3.499999,-0.005345357
3.599999,-0.005370211
3.699999,-0.005334457
3.799999,-0.005284867
3.899998,-0.005224918
3.999998,-0.005149547
4.099998,-0.005081348
4.199998,-0.005012275
4.299998,-0.004939381
4.399998,-0.00487207
4.499998,-0.004812283
4.599998,-0.004746186
4.699998,-0.004680828
4.799998,-0.004623659
4.899998,-0.004561324
4.999998,-0.004504336
5.099998,-0.004450048
5.199997,-0.004391469
5.299997,-0.004338821
5.399997,-0.004288302
5.499997,-0.004231323
5.599997,-0.004179327
5.699997,-0.004131428
5.799997,-0.004079103
5.899997,-0.004028586
5.999997,-0.003981428
6.099997,-0.003928456
6.199996,-0.003879541
6.299996,-0.00383564
6.399996,-0.003783393
6.499996,-0.003734957
6.599996,-0.003692358
6.699996,-0.003643488
6.799996,-0.003600103
6.899996,-0.00355982
6.999996,-0.003514621
7.099996,-0.003473185
7.199996,-0.003434589
7.299995,-0.003392755
7.399995,-0.003355476
7.499995,-0.00331924
7.599995,-0.003281576
7.699995,-0.003248294
7.799995,-0.003216414
7.899995,-0.003182009
7.999995,-0.003153021
8.099995,-0.003122056
8.199995,-0.003093199
8.299995,-0.003066673
8.399996,-0.003040539
8.499996,-0.003013862
8.599997,-0.002989458
8.699997,-0.00296614
8.799997,-0.002942192
8.899998,-0.00291951
8.999998,-0.002898816
9.099998,-0.0028765
9.199999,-0.002855642
9.299999,-0.002836816
9.4,-0.00281598
9.5,-0.002797262
9.6,-0.002779591
9.700001,-0.00276049
9.800001,-0.002742508
9.900002,-0.002726323
10,-0.002708923
10.1,-0.002692461
10.2,-0.002676787
10.3,-0.002660227
10.4,-0.002645085
10.5,-0.002630866
10.6,-0.00261592
10.7,-0.002601087
10.8,-0.002587738
10.90001,-0.002573703
11.00001,-0.002559344
11.10001,-0.002547619
11.20001,-0.002533816
11.30001,-0.002519844
11.40001,-0.002508407
11.50001,-0.002495567
11.60001,-0.002483041
11.70001,-0.002471388
11.80001,-0.0024589
11.90001,-0.002447259
12.00001,-0.002435717
12.10001,-0.00242391
12.20001,-0.00241256
12.30001,-0.00240181
12.40001,-0.002390189
12.50001,-0.002379471
12.60001,-0.002369382
12.70001,-0.00235849
12.80001,-0.002347931
12.90001,-0.002337906
13.00001,-0.002327602
13.10001,-0.002317807
13.20001,-0.002308506
13.30001,-0.002298372
13.40001,-0.002288794
13.50002,-0.002279317
13.60002,-0.002269727
13.70002,-0.002260868
13.80002,-0.002251878
13.90002,-0.002242431
14.00002,-0.002233681
14.10002,-0.002225342
14.20002,-0.00221638
14.30002,-0.002207814
14.40002,-0.0021994
14.50002,-0.002191029
14.60002,-0.002182894
14.70002,-0.002174828
14.80002,-0.002166395
14.90002,-0.002158292
15.00002,-0.002150344
15.10002,-0.002142285
15.20002,-0.002134463
15.30002,-0.002126652
15.40002,-0.00211888
15.50002,-0.002111237
15.60002,-0.002104201
15.70002,-0.002096468
15.80002,-0.002088844
15.90002,-0.002082007
16.00002,-0.002074456
16.10003,-0.002067279
16.20003,-0.002060491
16.30003,-0.002053098
16.40003,-0.002046153
16.50003,-0.002039596
16.60003,-0.002031867
16.70003,-0.002025554
16.80003,-0.002018982
16.90003,-0.002011981
17.00003,-0.00200551
17.10003,-0.001999134
17.20003,-0.001992198
17.30003,-0.001985824
17.40003,-0.001979517
17.50003,-0.001973146
17.60003,-0.001966492
17.70003,-0.001960394
17.80003,-0.001953813
17.90003,-0.001947573
18.00003,-0.001941732
18.10003,-0.001935383
18.20003,-0.00192936
18.30003,-0.001923418
18.40003,-0.001917272
18.50003,-0.001911213
18.60003,-0.001905579
18.70004,-0.001899686
18.80004,-0.001893784
18.90004,-0.001888092
19.00004,-0.001882216
19.10004,-0.001876432
19.20004,-0.00187097
19.30004,-0.001865287
19.40004,-0.001859578
19.50004,-0.00185419
19.60004,-0.001848681
19.70004,-0.00184292
19.80004,-0.001837877
19.90004,-0.001832402
20.00004,-0.001826727
20.10004,-0.001821659
20.20004,-0.001816355
20.30004,-0.001810734
20.40004,-0.001805661
20.50004,-0.001800503
20.60004,-0.001795207
20.70004,-0.001790234
20.80004,-0.001785137
20.90004,-0.001779882
21.00004,-0.001774993
21.10004,-0.001770104
21.20004,-0.001764842
21.30005,-0.001760019
21.40005,-0.001755203
21.50005,-0.001750192
21.60005,-0.001745431
21.70005,-0.001740704
21.80005,-0.001735566
21.90005,-0.001730769
22.00005,-0.001726084
22.10005,-0.001721416
22.20005,-0.001716597
22.30005,-0.001712117
22.40005,-0.001707463
22.50005,-0.001702655
22.60005,-0.001698297
22.70005,-0.001693667
22.80005,-0.001688989
22.90005,-0.001684766
23.00005,-0.001680061
23.10005,-0.001675482
23.20005,-0.001671247
23.30005,-0.0016667
23.40005,-0.001662084
23.50005,-0.00165779
23.60005,-0.001653499
23.70005,-0.001648766
23.80005,-0.001644834
23.90005,-0.001640277
24.00006,-0.001635985
24.10006,-0.001631803
24.20006,-0.001627607
24.30006,-0.001623385
24.40006,-0.001619283
24.50006,-0.001614965
24.60006,-0.001610812
24.70006,-0.001606762
24.80006,-0.001602541
24.90006,-0.001598431
25.00006,-0.001594385
25.10006,-0.001590124
25.20006,-0.00158629
25.30006,-0.001582079
25.40006,-0.001577987
25.50006,-0.001574145
25.60006,-0.001570041
25.70006,-0.001565927
25.80006,-0.001562095
25.90006,-0.001558044
26.00006,-0.001553977
26.10006,-0.001550322
26.20006,-0.001546372
26.30006,-0.001542382
26.40006,-0.001538604
26.50006,-0.001535181
26.60007,-0.001531037
26.70007,-0.001527085
26.80007,-0.001523632
26.90007,-0.001519653
27.00007,-0.001515699
27.10007,-0.001512305
27.20007,-0.001508426
27.30007,-0.001504645
27.40007,-0.001500958
27.50007,-0.001497284
27.60007,-0.001493602
27.70007,-0.001490065
27.80007,-0.001486257
27.90007,-0.001482687
28.00007,-0.001479249
28.10007,-0.0014754
28.20007,-0.001471999
28.30007,-0.001468503
28.40007,-0.001464916
28.50007,-0.001461446
28.60007,-0.00145781
28.70007,-0.001454215
28.80007,-0.001450836
28.90007,-0.001447328
29.00007,-0.001443851
29.10007,-0.001440551
29.20008,-0.001437168
29.30008,-0.001433477
29.40008,-0.001430179
29.50008,-0.001426923
29.60008,-0.001423182
29.70008,-0.001419975
29.80008,-0.001416649
29.90008,-0.001413316
30.00008,-0.001409968
30.10008,-0.001406555
30.20008,-0.0014034
30.30008,-0.001400099
30.40008,-0.001396763
30.50008,-0.001393463
30.60008,-0.001390368
30.70008,-0.001387071
30.80008,-0.001383643
30.90008,-0.001380804
31.00008,-0.001377575
31.10008,-0.001374142
31.20008,-0.001371092
31.30008,-0.001367904
31.40008,-0.001364753
31.50008,-0.001361513
31.60008,-0.001358343
31.70008,-0.001355094
31.80009,-0.001352136
31.90009,-0.001348951
32.00008,-0.001345747
32.10008,-0.00134273
32.20008,-0.001339489
32.30008,-0.001336543
32.40008,-0.001333484
32.50008,-0.001330329
32.60007,-0.001327326
32.70007,-0.001324387
32.80007,-0.001321251
32.90007,-0.00131836
33.00007,-0.00131529
33.10007,-0.001312288
33.20007,-0.001309507
33.30006,-0.001306349
33.40006,-0.001303224
33.50006,-0.001300427
33.60006,-0.001297368
33.70006,-0.001294268
33.80006,-0.001291506
33.90005,-0.001288602
34.00005,-0.0012855
34.10005,-0.001282701
34.20005,-0.001279831
34.30005,-0.001276876
34.40005,-0.001274052
34.50005,-0.001271367
34.60004,-0.001268212
34.70004,-0.00126545
34.80004,-0.001262723
34.90004,-0.001259677
35.00004,-0.001256993
35.10004,-0.001254256
35.20004,-0.001251244
35.30003,-0.001248529
35.40003,-0.001245815
35.50003,-0.001242823
35.60003,-0.001240248
35.70003,-0.001237535
35.80003,-0.001234528
35.90002,-0.001231967
36.00002,-0.001229209
36.10002,-0.001226405
36.20002,-0.001223898
36.30002,-0.001221134
36.40002,-0.001218464
36.50002,-0.001215607
36.60001,-0.001213066
36.70001,-0.001210229
36.80001,-0.001207721
36.90001,-0.001205147
37.00001,-0.001202369
37.10001,-0.001199772
37.2,-0.001197128
37.3,-0.00119437
37.4,-0.001191851
37.5,-0.001189268
37.6,-0.001186435
37.7,-0.001184038
37.8,-0.001181582
37.89999,-0.00117881
37.99999,-0.001176292
38.09999,-0.001173741
38.19999,-0.001170954
38.29999,-0.001168567
38.39999,-0.001166066
38.49998,-0.001163378
38.59998,-0.001160992
38.69998,-0.001158439
38.79998,-0.001155735
38.89998,-0.001153527
38.99998,-0.001151052
39.09998,-0.00114838
39.19997,-0.001146099
39.29997,-0.001143608
39.39997,-0.001140933
39.49997,-0.001138586
39.59997,-0.001136193
39.69997,-0.001133549
39.79996,-0.001131262
39.89996,-0.001128921
39.99996,-0.00112638
40.09996,-0.001123986
40.19996,-0.001121641
40.29996,-0.0011191
40.39996,-0.001116816
40.49995,-0.001114436
40.59995,-0.001112014
40.69995,-0.001109582
40.79995,-0.001107246
40.89995,-0.001104829
40.99995,-0.001102501
41.09995,-0.001100066
41.19994,-0.001097692
41.29994,-0.001095427
41.39994,-0.001093092
41.49994,-0.001090636
41.59994,-0.001088454
41.69994,-0.001086198
41.79993,-0.001083743
41.89993,-0.001081626
41.99993,-0.001079313
42.09993,-0.001076861
42.19993,-0.001074653
42.29993,-0.001072464
42.39993,-0.001070128
42.49992,-0.001067951
42.59992,-0.001065829
42.69992,-0.001063432
42.79992,-0.001061228
42.89992,-0.001059043
42.99992,-0.001056732
43.09991,-0.001054504
43.19991,-0.001052381
43.29991,-0.001050132
43.39991,-0.001047918
43.49991,-0.001045786
43.59991,-0.001043517
43.69991,-0.001041283
43.7999,-0.001039125
43.8999,-0.001036923
43.9999,-0.001034769
44.0999,-0.001032499
44.1999,-0.001030373
44.2999,-0.001028253
44.39989,-0.001026098
44.49989,-0.001023808
44.59989,-0.001021928
44.69989,-0.001019702
44.79989,-0.001017415
44.89989,-0.001015385
44.99989,-0.001013298
45.09988,-0.001011105
45.19988,-0.001009027
45.29988,-0.001007031
45.39988,-0.001004853
45.49988,-0.001002696
45.59988,-0.001000798
45.69987,-0.000998622
45.79987,-0.0009965861
45.89987,-0.000994566
45.99987,-0.0009924462
46.09987,-0.000990446
46.19987,-0.0009883817
46.29987,-0.0009863222
46.39986,-0.0009842889
46.49986,-0.0009823367
46.59986,-0.0009803534
46.69986,-0.0009784427
46.79986,-0.0009763963
46.89986,-0.0009743028
46.99986,-0.0009724316
47.09985,-0.000970308
47.19985,-0.000968239
47.29985,-0.0009664469
47.39985,-0.0009644203
47.49985,-0.0009623212
47.59985,-0.0009604763
47.69984,-0.000958509
47.79984,-0.0009564608
47.89984,-0.0009544907
47.99984,-0.0009526091
48.09984,-0.0009504902
48.19984,-0.0009486161
48.29984,-0.0009466677
48.39983,-0.0009446637
48.49983,-0.0009428311
48.59983,-0.0009409288
48.69983,-0.0009389296
48.79983,-0.0009371138
48.89983,-0.0009351578
48.99982,-0.0009332349
49.09982,-0.0009314955
49.19982,-0.0009296252
49.29982,-0.0009275939
49.39982,-0.0009257952
49.49982,-0.0009239739
49.59982,-0.0009219689
49.69981,-0.0009201589
49.79981,-0.0009183875
49.89981,-0.0009165398
49.99981,-0.0009145914
50.09981,-0.0009128982
50.19981,-0.000911092
50.2998,-0.0009092942
50.3998,-0.0009073561
50.4998,-0.0009054086
50.5998,-0.0009037314
50.6998,-0.0009019138
50.7998,-0.0009000021
50.8998,-0.0008983164
50.99979,-0.0008965252
51.09979,-0.0008945909
51.19979,-0.0008928186
51.29979,-0.0008911499
51.39979,-0.0008892457
51.49979,-0.0008874676
51.59978,-0.0008857857
51.69978,-0.0008839004
51.79978,-0.0008821365
51.89978,-0.0008804452
51.99978,-0.0008786625
52.09978,-0.0008768402
52.19978,-0.0008751309
52.29977,-0.0008734519
52.39977,-0.0008716917
52.49977,-0.0008698968
52.59977,-0.0008681659
52.69977,-0.0008663993
52.79977,-0.0008647182
52.89977,-0.0008629469
52.99976,-0.0008611651
53.09976,-0.0008594982
53.19976,-0.0008577975
53.29976,-0.0008560873
53.39976,-0.0008544147
53.49976,-0.0008527667
53.59975,-0.0008511404
53.69975,-0.0008494434
53.79975,-0.0008476654
53.89975,-0.000846119
53.99975,-0.00084444
54.09975,-0.0008428174
54.19975,-0.0008411976
54.29974,-0.0008394592
54.39974,-0.0008378488
54.49974,-0.0008363081
54.59974,-0.000834725
54.69974,-0.0008329829
54.79974,-0.0008313782
54.89973,-0.0008297763
54.99973,-0.0008279682
55.09973,-0.0008263728
55.19973,-0.0008248397
55.29973,-0.0008232407
55.39973,-0.0008216255
55.49973,-0.0008200171
55.59972,-0.0008184237
55.69972,-0.0008168161
55.79972,-0.0008151822
55.89972,-0.0008135982
55.99972,-0.0008120218
56.09972,-0.0008104369
56.19971,-0.0008087926
56.29971,-0.0008072519
56.39971,-0.0008056895
56.49971,-0.0008040557
56.59971,-0.0008025432
56.69971,-0.0008009819
56.79971,-0.0007993659
56.8997,-0.0007977894
56.9997,-0.0007962788
57.0997,-0.0007945725
57.1997,-0.0007930468
57.2997,-0.000791541
57.3997,-0.0007899241
57.49969,-0.0007884606
57.59969,-0.0007869321
57.69969,-0.0007853755
57.79969,-0.0007838735
57.89969,-0.000782378
57.99969,-0.0007807977
58.09969,-0.00077929
58.19968,-0.000777867
58.29968,-0.0007763283
58.39968,-0.0007749393
58.49968,-0.0007734146
58.59968,-0.0007718842
58.69968,-0.0007704124
58.79967,-0.0007689168
58.89967,-0.0007674252
58.99967,-0.0007659937
59.09967,-0.0007644935
59.19967,-0.0007629557
59.29967,-0.0007616081
59.39967,-0.0007602096
59.49966,-0.0007586143
59.59966,-0.0007572384
59.69966,-0.0007557957
59.79966,-0.0007543482
59.89966,-0.0007529536
59.99966,-0.0007515372
60.09966,-0.0007500493
60.19965,-0.0007487196
60.29965,-0.0007473314
60.39965,-0.0007457757
60.49965,-0.0007443979
60.59965,-0.0007431643
60.69965,-0.0007416858
60.79964,-0.0007401941
60.89964,-0.0007388653
60.99964,-0.0007374046
61.09964,-0.0007360383
61.19964,-0.0007345776
61.29964,-0.0007332337
61.39964,-0.0007318409
61.49963,-0.000730432
61.59963,-0.0007289856
61.69963,-0.0007276822
61.79963,-0.000726281
61.89963,-0.0007248438
61.99963,-0.0007235206
62.09962,-0.0007221439
62.19962,-0.0007207163
62.29962,-0.0007193319
62.39962,-0.0007179899
62.49962,-0.0007164793
62.59962,-0.0007151901
62.69962,-0.0007138491
62.79961,-0.0007124356
62.89961,-0.0007110945
62.99961,-0.0007097752
63.09961,-0.0007084002
63.19961,-0.0007071092
63.29961,-0.0007057521
63.3996,-0.0007043649
63.4996,-0.0007030983
63.5996,-0.0007018034
63.6996,-0.0007003956
63.7996,-0.0006990508
63.8996,-0.0006978077
63.9996,-0.000696446
64.09959,-0.0006951445
64.19959,-0.0006939108
64.29959,-0.0006924906
64.39959,-0.0006912579
64.49959,-0.0006899989
64.59959,-0.0006886945
64.69958,-0.0006873902
64.79958,-0.0006860888
64.89958,-0.0006847308
64.99958,-0.0006834811
65.09958,-0.0006822305
65.19958,-0.0006809253
65.29958,-0.0006795956
65.39957,-0.0006783515
65.49957,-0.000677052
65.59957,-0.0006757844
65.69957,-0.0006746392
65.79957,-0.000673252
65.89957,-0.000672009
65.99957,-0.0006707932
66.09956,-0.0006694907
66.19956,-0.0006682589
66.29956,-0.0006671091
66.39956,-0.000665787
66.49956,-0.0006645533
66.59956,-0.0006633582
66.69955,-0.0006620407
66.79955,-0.000660905
66.89955,-0.0006597136
66.99955,-0.000658416
67.09955,-0.0006571842
67.19955,-0.0006560683
67.29955,-0.0006547574
67.39954,-0.0006535708
67.49954,-0.0006523814
67.59954,-0.0006511562
67.69954,-0.000650012
67.79954,-0.0006487868
67.89954,-0.0006475013
67.99953,-0.0006463844
68.09953,-0.0006452383
68.19953,-0.0006439717
68.29953,-0.0006428294
68.39953,-0.0006416757
68.49953,-0.0006404317
68.59953,-0.0006392536
68.69952,-0.0006380623
68.79952,-0.0006367722
68.89952,-0.000635611
68.99952,-0.0006345233
69.09952,-0.0006333179
69.19952,-0.0006321483
69.29951,-0.000631004
69.39951,-0.0006298071
69.49951,-0.0006286856
69.59951,-0.0006275404
69.69951,-0.0006263971
69.79951,-0.0006251898
69.89951,-0.0006240767
69.9995,-0.0006229683
70.0995,-0.0006217751
70.1995,-0.000620677
70.2995,-0.0006195668
70.3995,-0.0006184319
70.4995,-0.000617348
70.59949,-0.0006162546
70.69949,-0.0006151114
70.79949,-0.0006139445
70.89949,-0.0006128993
70.99949,-0.0006117183
71.09949,-0.0006106062
71.19949,-0.0006096135
71.29948,-0.0006084195
71.39948,-0.0006072987
71.49948,-0.0006062564
71.59948,-0.0006051441
71.69948,-0.0006040819
71.79948,-0.0006030101
71.89948,-0.0006018895
71.99947,-0.0006008103
72.09947,-0.000599779
72.19947,-0.0005986603
72.29947,-0.0005976046
72.39947,-0.000596564
72.49947,-0.0005954659
72.59946,-0.000594351
72.69946,-0.0005933
72.79946,-0.0005922528
72.89946,-0.0005911735
72.99946,-0.0005901763
73.09946,-0.0005891544
73.19946,-0.0005880254
73.29945,-0.0005869631
73.39945,-0.0005859215
73.49945,-0.0005848922
73.59945,-0.00058391
73.69945,-0.0005828298
73.79945,-0.000581727
73.89944,-0.0005807034
73.99944,-0.0005797362
74.09944,-0.0005787098
74.19944,-0.0005775994
74.29944,-0.0005766793
74.39944,-0.0005756387
74.49944,-0.0005746076
74.59943,-0.0005735462
74.69943,-0.0005725084
74.79943,-0.0005715007
74.89943,-0.0005705402
74.99943,-0.0005694826
75.09943,-0.0005684618
75.19942,-0.0005674419
75.29942,-0.0005665341
75.39942,-0.0005656403
75.49942,-0.0005645922
75.59942,-0.0005635828
75.69942,-0.0005625666
75.79942,-0.0005615213
75.89941,-0.0005605315
75.99941,-0.0005595276
76.09941,-0.0005585162
76.19941,-0.0005575499
76.29941,-0.0005565837
76.39941,-0.000555595
76.4994,-0.0005546014
76.5994,-0.000553655
76.6994,-0.000552653
76.7994,-0.0005516227
76.8994,-0.0005507225
76.9994,-0.000549727
77.0994,-0.0005487024
77.19939,-0.0005477936
77.29939,-0.0005468302
77.39939,-0.0005458179
77.49939,-0.0005448987
77.59939,-0.0005439259
77.69939,-0.0005429023
77.79939,-0.0005420434
77.89938,-0.0005411497
77.99938,-0.0005401289
78.09938,-0.0005392559
78.19938,-0.0005383207
78.29938,-0.0005373621
78.39938,-0.0005363629
78.49937,-0.0005354541
78.59937,-0.0005346075
78.69937,-0.0005336271
78.79937,-0.0005326205
78.89937,-0.0005316392
78.99937,-0.0005307775
79.09937,-0.0005298254
79.19936,-0.0005288855
79.29936,-0.0005280107
79.39936,-0.0005270482
79.49936,-0.0005261094
79.59936,-0.0005252335
79.69936,-0.000524384
79.79935,-0.0005234244
79.89935,-0.0005224884
79.99935,-0.0005215579
80.09935,-0.0005206652
80.19935,-0.0005197677
80.29935,-0.0005189512
80.39935,-0.0005179672
80.49934,-0.0005170593
80.59934,-0.0005162438
80.69934,-0.0005152606
80.79934,-0.000514413
80.89934,-0.0005135325
80.99934,-0.0005125955
81.09933,-0.0005117573
81.19933,-0.0005108844
81.29933,-0.0005099228
81.39933,-0.0005090697
81.49933,-0.0005082014
81.59933,-0.0005072983
81.69933,-0.0005064874
81.79932,-0.0005055965
81.89932,-0.0005046737
81.99932,-0.0005038355
82.09932,-0.0005029681
82.19932,-0.0005020829
82.29932,-0.0005012467
82.39931,-0.0005003888
82.49931,-0.0004995393
82.59931,-0.0004986682
82.69931,-0.0004978593
82.79931,-0.0004969562
82.89931,-0.0004960897
82.99931,-0.0004952883
83.0993,-0.000494373
83.1993,-0.0004935706
83.2993,-0.0004927287
83.3993,-0.000491867
83.4993,-0.0004910204
83.5993,-0.000490251
83.6993,-0.000489362
83.79929,-0.0004885766
83.89929,-0.0004877856
83.99929,-0.0004868881
84.09929,-0.0004860688
84.19929,-0.0004852862
84.29929,-0.0004843963
84.39928,-0.0004835092
84.49928,-0.0004827445
84.59928,-0.000481911
84.69928,-0.0004810258
84.79928,-0.000480231
84.89928,-0.0004793919
84.99928,-0.0004785679
85.09927,-0.0004777976
85.19927,-0.0004769839
85.29927,-0.000476174
85.39927,-0.0004753613
85.49927,-0.0004745759
85.59927,-0.0004737783
85.69926,-0.0004729542
85.79926,-0.000472165
85.89926,-0.0004713665
85.99926,-0.0004705858
86.09926,-0.0004698061
86.19926,-0.0004689359
86.29926,-0.000468175
86.39925,-0.0004673688
86.49925,-0.0004666371
86.59925,-0.0004658432
86.69925,-0.0004650522
86.79925,-0.0004642037
86.89925,-0.0004634465
86.99924,-0.0004626809
87.09924,-0.0004619407
87.19924,-0.000461175
87.29924,-0.0004604141
87.39924,-0.0004596259
87.49924,-0.0004588208
87.59924,-0.0004580805
87.69923,-0.000457313
87.79923,-0.0004565502
87.89923,-0.0004557488
87.99923,-0.0004550717
88.09923,-0.0004542995
88.19923,-0.0004535932
88.29922,-0.0004527974
88.39922,-0.000452109
88.49922,-0.0004513217
88.59922,-0.000450557
88.69922,-0.0004498131
88.79922,-0.0004490879
88.89922,-0.0004483392
88.99921,-0.0004475991
89.09921,-0.0004469022
89.19921,-0.0004460781
89.29921,-0.0004453304
89.39921,-0.0004447004
89.49921,-0.0004438933
89.59921,-0.0004430957
89.6992,-0.0004424581
89.7992,-0.0004417923
89.8992,-0.0004411416
89.9992,-0.0004405248
90.0992,-0.0004397092
