EXPID. 0519
[电化学]: i-t : @ 0(V) X 600(sec)
起始电位 (V),0
静置时间 (秒),0
运行时间 (秒),600
记录间隔,0.1
电解液 信息:
HNO3,0.4
0.1,-0.01005814
0.2,-0.01005814
0.3,-0.01005814
0.4,-0.01005814
0.5,0.004912463
0.6,0.008653578
0.7,0.00387395
0.8000001,-0.001016222
0.9000001,-0.003531035
1,-0.004109002
1.1,-0.004093361
1.2,-0.003967519
1.3,-0.003827217
1.4,-0.003688057
1.5,-0.003568102
1.6,-0.00345818
1.7,-0.003357276
1.8,-0.003267551
1.9,-0.00318248
2,-0.003100554
2.1,-0.003024353
2.2,-0.002946778
2.3,-0.002856882
2.4,-0.002761779
2.5,-0.002656556
2.6,-0.002551328
2.7,-0.002451221
2.799999,-0.002361756
2.899999,-0.002276444
2.999999,-0.002197595
3.099999,-0.002128958
3.199999,-0.002065328
3.299999,-0.002006291
3.399999,-0.001953783
3.499999,-0.001905825
3.599999,-0.001862001
3.699999,-0.001820667
3.799999,-0.001783378
3.899998,-0.001749966
3.999998,-0.00171698
4.099998,-0.00168717
4.199998,-0.00165997
4.299998,-0.001633727
4.399998,-0.001609052
4.499998,-0.001586389
4.599998,-0.001564419
4.699998,-0.001543926
4.799998,-0.001524705
4.899998,-0.001506004
4.999998,-0.001488653
5.099998,-0.00147185
5.199997,-0.001456057
5.299997,-0.001440807
5.399997,-0.001426025
5.499997,-0.001412119
5.599997,-0.00139906
5.699997,-0.001386427
5.799997,-0.001374042
5.899997,-0.001362022
5.999997,-0.001350655
6.099997,-0.00133937
6.199996,-0.001328648
6.299996,-0.001318455
6.399996,-0.001308616
6.499996,-0.001298708
6.599996,-0.001289632
6.699996,-0.001281027
6.799996,-0.0012724
6.899996,-0.001263908
6.999996,-0.001255808
7.099996,-0.001247861
7.199996,-0.001239967
7.299995,-0.001232283
7.399995,-0.00122597
7.499995,-0.001218574
7.599995,-0.001211225
7.699995,-0.001204778
7.799995,-0.001198408
7.899995,-0.001191604
7.999995,-0.001185335
8.099995,-0.001179824
8.199995,-0.001173044
8.299995,-0.001166784
8.399996,-0.001161248
8.499996,-0.001155009
8.599997,-0.001149148
8.699997,-0.00114335
8.799997,-0.00113768
8.899998,-0.001132121
8.999998,-0.001126815
9.099998,-0.001121415
9.199999,-0.001116464
9.299999,-0.001111187
9.4,-0.001106068
9.5,-0.001101222
9.6,-0.001096365
9.700001,-0.001091439
9.800001,-0.001087004
9.900002,-0.001082558
10,-0.001078195
10.1,-0.001073645
10.2,-0.001069635
10.3,-0.001065602
10.4,-0.001061424
10.5,-0.001057444
10.6,-0.001053468
10.7,-0.001049553
10.8,-0.0010456
10.90001,-0.001041783
11.00001,-0.001037874
11.10001,-0.001033994
11.20001,-0.001030381
11.30001,-0.001026623
11.40001,-0.001022816
11.50001,-0.001019377
11.60001,-0.001016035
11.70001,-0.001012386
11.80001,-0.001009103
11.90001,-0.001005955
12.00001,-0.001002736
12.10001,-0.0009997983
12.20001,-0.0009969646
12.30001,-0.0009938908
12.40001,-0.0009909282
12.50001,-0.0009878657
12.60001,-0.000984596
12.70001,-0.0009816191
12.80001,-0.0009785774
12.90001,-0.0009754008
13.00001,-0.0009725578
13.10001,-0.0009696187
13.20001,-0.0009666842
13.30001,-0.0009639513
13.40001,-0.0009611826
13.50002,-0.0009582161
13.60002,-0.0009555643
13.70002,-0.0009530009
13.80002,-0.0009502274
13.90002,-0.0009474126
14.00002,-0.0009449877
14.10002,-0.0009423367
14.20002,-0.000939585
14.30002,-0.0009371656
14.40002,-0.0009347021
14.50002,-0.0009322074
14.60002,-0.0009298748
14.70002,-0.0009275091
14.80002,-0.0009251162
14.90002,-0.000922825
15.00002,-0.0009205347
15.10002,-0.0009184214
15.20002,-0.0009160935
15.30002,-0.0009137382
15.40002,-0.000911672
15.50002,-0.0009094373
15.60002,-0.000907308
15.70002,-0.0009050394
15.80002,-0.0009028442
15.90002,-0.0009006331
16.00002,-0.0008984294
16.10003,-0.0008961796
16.20003,-0.0008940654
16.30003,-0.0008919202
16.40003,-0.0008899331
16.50003,-0.0008878067
16.60003,-0.0008857282
16.70003,-0.0008837601
16.80003,-0.0008817711
16.90003,-0.0008799055
17.00003,-0.0008778441
17.10003,-0.0008757657
17.20003,-0.0008738172
17.30003,-0.0008719385
17.40003,-0.0008701304
17.50003,-0.0008684249
17.60003,-0.0008666374
17.70003,-0.0008650394
17.80003,-0.0008631032
17.90003,-0.0008612404
18.00003,-0.0008594663
18.10003,-0.0008576788
18.20003,-0.0008559601
18.30003,-0.0008541775
18.40003,-0.0008524456
18.50003,-0.0008508164
18.60003,-0.000849045
18.70004,-0.000847251
18.80004,-0.0008455408
18.90004,-0.0008436668
19.00004,-0.0008419782
19.10004,-0.0008402747
19.20004,-0.0008384694
19.30004,-0.0008368713
19.40004,-0.0008353635
19.50004,-0.0008336147
19.60004,-0.0008319413
19.70004,-0.0008303922
19.80004,-0.0008287112
19.90004,-0.0008269605
20.00004,-0.0008254565
20.10004,-0.0008238641
20.20004,-0.0008221849
20.30004,-0.0008206057
20.40004,-0.0008191676
20.50004,-0.0008175526
20.60004,-0.0008159328
20.70004,-0.0008144646
20.80004,-0.0008130605
20.90004,-0.0008116649
21.00004,-0.0008102062
21.10004,-0.0008088934
21.20004,-0.0008073593
21.30005,-0.0008057847
21.40005,-0.0008044832
21.50005,-0.000802918
21.60005,-0.0008013633
21.70005,-0.00080001
21.80005,-0.000798573
21.90005,-0.0007970248
22.00005,-0.0007955208
22.10005,-0.0007940884
22.20005,-0.0007927672
22.30005,-0.0007912773
22.40005,-0.0007899458
22.50005,-0.0007886357
22.60005,-0.0007871968
22.70005,-0.0007859396
22.80005,-0.0007846372
22.90005,-0.0007832914
23.00005,-0.0007818976
23.10005,-0.0007806197
23.20005,-0.0007793314
23.30005,-0.0007778341
23.40005,-0.0007765571
23.50005,-0.0007753103
23.60005,-0.0007739203
23.70005,-0.0007726763
23.80005,-0.0007714012
23.90005,-0.0007700498
24.00006,-0.0007687982
24.10006,-0.0007675071
24.20006,-0.0007661953
24.30006,-0.0007649701
24.40006,-0.0007637204
24.50006,-0.0007623803
24.60006,-0.0007611843
24.70006,-0.0007599431
24.80006,-0.0007586982
24.90006,-0.0007575275
25.00006,-0.0007563899
25.10006,-0.0007552109
25.20006,-0.0007540761
25.30006,-0.0007528848
25.40006,-0.0007516333
25.50006,-0.0007504505
25.60006,-0.000749327
25.70006,-0.0007481206
25.80006,-0.0007470075
25.90006,-0.0007458049
26.00006,-0.0007446673
26.10006,-0.0007435051
26.20006,-0.0007423327
26.30006,-0.0007411772
26.40006,-0.0007400368
26.50006,-0.000738934
26.60007,-0.000737916
26.70007,-0.0007368593
26.80007,-0.0007358273
26.90007,-0.0007347122
27.00007,-0.0007336123
27.10007,-0.0007326291
27.20007,-0.000731418
27.30007,-0.0007303049
27.40007,-0.0007292031
27.50007,-0.0007280353
27.60007,-0.0007269551
27.70007,-0.0007258468
27.80007,-0.0007247326
27.90007,-0.0007237072
28.00007,-0.0007225818
28.10007,-0.0007214517
28.20007,-0.000720445
28.30007,-0.0007193403
28.40007,-0.0007182565
28.50007,-0.0007172168
28.60007,-0.0007161177
28.70007,-0.000715063
28.80007,-0.0007140422
28.90007,-0.0007130496
29.00007,-0.000712057
29.10007,-0.0007110569
29.20008,-0.0007101745
29.30008,-0.0007092779
29.40008,-0.0007082543
29.50008,-0.0007073606
29.60008,-0.0007064263
29.70008,-0.0007053472
29.80008,-0.0007043244
29.90008,-0.0007034872
30.00008,-0.0007024297
30.10008,-0.0007013523
30.20008,-0.0007003899
30.30008,-0.0006994369
30.40008,-0.0006983925
30.50008,-0.0006974771
30.60008,-0.000696558
30.70008,-0.0006955456
30.80008,-0.0006945286
30.90008,-0.0006935699
31.00008,-0.0006926479
31.10008,-0.0006916723
31.20008,-0.0006907079
31.30008,-0.000689738
31.40008,-0.0006888565
31.50008,-0.0006878922
31.60008,-0.0006869523
31.70008,-0.0006860011
31.80009,-0.0006851555
31.90009,-0.0006842863
32.00008,-0.0006833822
32.10008,-0.0006825629
32.20008,-0.0006816966
32.30008,-0.0006807934
32.40008,-0.0006800222
32.50008,-0.0006791463
32.60007,-0.0006782216
32.70007,-0.000677405
32.80007,-0.0006765546
32.90007,-0.0006755574
33.00007,-0.0006746553
33.10007,-0.0006736805
33.20007,-0.000672752
33.30006,-0.0006717933
33.40006,-0.0006709825
33.50006,-0.0006700275
33.60006,-0.0006690914
33.70006,-0.000668291
33.80006,-0.0006674575
33.90005,-0.000666561
34.00005,-0.0006659122
34.10005,-0.0006652237
34.20005,-0.0006644572
34.30005,-0.0006635333
34.40005,-0.0006626763
34.50005,-0.0006617949
34.60004,-0.0006609173
34.70004,-0.000660065
34.80004,-0.0006592777
34.90004,-0.0006583576
35.00004,-0.0006574874
35.10004,-0.0006566079
35.20004,-0.0006557537
35.30003,-0.0006549222
35.40003,-0.0006540953
35.50003,-0.000653276
35.60003,-0.0006525217
35.70003,-0.0006516035
35.80003,-0.0006508115
35.90002,-0.0006499724
36.00002,-0.0006491145
36.10002,-0.0006483262
36.20002,-0.0006475164
36.30002,-0.0006466594
36.40002,-0.0006458259
36.50002,-0.000645066
36.60001,-0.0006443258
36.70001,-0.0006434623
36.80001,-0.0006426335
36.90001,-0.000641882
37.00001,-0.0006410476
37.10001,-0.0006401963
37.2,-0.0006394147
37.3,-0.0006386603
37.4,-0.0006378081
37.5,-0.0006370678
37.6,-0.0006362919
37.7,-0.0006354622
37.8,-0.0006347267
37.89999,-0.000633962
37.99999,-0.0006331927
38.09999,-0.0006324035
38.19999,-0.0006316793
38.29999,-0.0006309081
38.39999,-0.000630115
38.49998,-0.0006293975
38.59998,-0.0006286564
38.69998,-0.0006278747
38.79998,-0.0006271976
38.89998,-0.0006265242
38.99998,-0.000625769
39.09998,-0.0006250721
39.19997,-0.0006243018
39.29997,-0.0006235889
39.39997,-0.0006228684
39.49997,-0.000622117
39.59997,-0.0006214031
39.69997,-0.0006206544
39.79996,-0.0006199434
39.89996,-0.0006192531
39.99996,-0.0006185214
40.09996,-0.0006178133
40.19996,-0.0006170881
40.29996,-0.0006163243
40.39996,-0.0006156341
40.49995,-0.0006149325
40.59995,-0.0006141857
40.69995,-0.0006134672
40.79995,-0.0006127693
40.89995,-0.0006120282
40.99995,-0.0006112795
41.09995,-0.0006105525
41.19994,-0.0006098594
41.29994,-0.0006091474
41.39994,-0.0006084185
41.49994,-0.0006077283
41.59994,-0.0006069852
41.69994,-0.0006063119
41.79993,-0.0006056414
41.89993,-0.0006048927
41.99993,-0.0006042561
42.09993,-0.0006035592
42.19993,-0.0006028746
42.29993,-0.0006022002
42.39993,-0.000601526
42.49992,-0.0006008319
42.59992,-0.0006001426
42.69992,-0.0005994373
42.79992,-0.0005987827
42.89992,-0.0005981225
42.99992,-0.0005974926
43.09991,-0.0005968541
43.19991,-0.000596161
43.29991,-0.0005954885
43.39991,-0.0005948388
43.49991,-0.0005941277
43.59991,-0.0005934516
43.69991,-0.0005927895
43.7999,-0.0005921699
43.8999,-0.000591457
43.9999,-0.000590826
44.0999,-0.0005901809
44.1999,-0.0005895303
44.2999,-0.0005888578
44.39989,-0.0005882165
44.49989,-0.0005875582
44.59989,-0.0005869432
44.69989,-0.0005863095
44.79989,-0.0005857369
44.89989,-0.0005851766
44.99989,-0.000584491
45.09988,-0.0005838516
45.19988,-0.0005832376
45.29988,-0.0005826273
45.39988,-0.0005820228
45.49988,-0.0005813908
45.59988,-0.000580742
45.69987,-0.0005801317
45.79987,-0.0005794725
45.89987,-0.000578834
45.99987,-0.0005781569
46.09987,-0.0005775589
46.19987,-0.0005769647
46.29987,-0.0005763139
46.39986,-0.0005756764
46.49986,-0.000575053
46.59986,-0.0005743938
46.69986,-0.0005737383
46.79986,-0.0005731384
46.89986,-0.0005725131
46.99986,-0.000571869
47.09985,-0.0005712625
47.19985,-0.0005707163
47.29985,-0.0005700675
47.39985,-0.0005693668
47.49985,-0.0005688404
47.59985,-0.0005682621
47.69984,-0.0005675672
47.79984,-0.0005669475
47.89984,-0.0005664136
47.99984,-0.0005657986
48.09984,-0.0005652072
48.19984,-0.0005646205
48.29984,-0.0005639904
48.39983,-0.0005633651
48.49983,-0.0005627719
48.59983,-0.0005621559
48.69983,-0.0005615015
48.79983,-0.0005609647
48.89983,-0.0005603394
48.99982,-0.0005596415
49.09982,-0.0005590708
49.19982,-0.0005584606
49.29982,-0.0005578786
49.39982,-0.0005572675
49.49982,-0.0005567495
49.59982,-0.0005561778
49.69981,-0.0005555148
49.79981,-0.0005549216
49.89981,-0.0005544347
49.99981,-0.0005537501
50.09981,-0.0005531964
50.19981,-0.0005527047
50.2998,-0.0005521029
50.3998,-0.0005514381
50.4998,-0.000550956
50.5998,-0.0005504879
50.6998,-0.0005498814
50.7998,-0.0005492722
50.8998,-0.0005487335
50.99979,-0.0005481157
51.09979,-0.0005475535
51.19979,-0.0005470403
51.29979,-0.0005464205
51.39979,-0.0005458
51.49979,-0.0005452603
51.59978,-0.0005446511
51.69978,-0.0005440474
51.79978,-0.0005434947
51.89978,-0.0005429371
51.99978,-0.0005423664
52.09978,-0.0005418249
52.19978,-0.0005412995
52.29977,-0.0005407626
52.39977,-0.000540224
52.49977,-0.0005396665
52.59977,-0.0005391362
52.69977,-0.0005386682
52.79977,-0.0005380298
52.89977,-0.0005374497
52.99976,-0.0005369062
53.09976,-0.0005363497
53.19976,-0.0005357536
53.29976,-0.0005352253
53.39976,-0.0005346537
53.49976,-0.0005340849
53.59975,-0.0005335226
53.69975,-0.0005329886
53.79975,-0.0005324067
53.89975,-0.0005318388
53.99975,-0.0005313029
54.09975,-0.0005307756
54.19975,-0.0005301926
54.29974,-0.0005296775
54.39974,-0.0005291078
54.49974,-0.0005285625
54.59974,-0.0005280492
54.69974,-0.0005275568
54.79974,-0.0005270172
54.89973,-0.0005264577
54.99973,-0.0005259427
55.09973,-0.0005254181
55.19973,-0.0005248549
55.29973,-0.0005243332
55.39973,-0.0005237616
55.49973,-0.000523223
55.59972,-0.0005226569
55.69972,-0.0005221437
55.79972,-0.0005216804
55.89972,-0.0005211568
55.99972,-0.0005206576
56.09972,-0.0005201651
56.19971,-0.0005196651
56.29971,-0.0005191321
56.39971,-0.0005186141
56.49971,-0.000518147
56.59971,-0.0005176356
56.69971,-0.000517127
56.79971,-0.0005166195
56.8997,-0.0005160592
56.9997,-0.0005155064
57.0997,-0.0005150252
57.1997,-0.0005145251
57.2997,-0.000513961
57.3997,-0.0005134157
57.49969,-0.0005129034
57.59969,-0.0005124345
57.69969,-0.0005118797
57.79969,-0.0005113401
57.89969,-0.0005108147
57.99969,-0.0005103344
58.09969,-0.0005098748
58.19968,-0.0005094529
58.29968,-0.0005089293
58.39968,-0.0005083766
58.49968,-0.0005078708
58.59968,-0.0005073472
58.69968,-0.0005068349
58.79967,-0.0005063348
58.89967,-0.0005058122
58.99967,-0.000505313
59.09967,-0.0005048149
59.19967,-0.0005042856
59.29967,-0.0005038214
59.39967,-0.0005033835
59.49966,-0.0005028542
59.59966,-0.0005023692
59.69966,-0.0005018927
59.79966,-0.0005014397
59.89966,-0.0005009849
59.99966,-0.0005005244
60.09966,-0.0005001288
60.19965,-0.0004996109
60.29965,-0.0004990176
60.39965,-0.0004986155
60.49965,-0.0004981069
60.59965,-0.0004975551
60.69965,-0.0004970409
60.79964,-0.0004965126
60.89964,-0.0004960267
60.99964,-0.000495553
61.09964,-0.0004950783
61.19964,-0.0004945632
61.29964,-0.0004940791
61.39964,-0.0004935942
61.49963,-0.0004930894
61.59963,-0.0004925969
61.69963,-0.0004921646
61.79963,-0.0004916834
61.89963,-0.0004911984
61.99963,-0.0004908236
62.09962,-0.0004903188
62.19962,-0.0004897867
62.29962,-0.0004893781
62.39962,-0.0004889053
62.49962,-0.0004884062
62.59962,-0.000487957
62.69962,-0.000487487
62.79961,-0.0004870265
62.89961,-0.0004865274
62.99961,-0.0004860584
63.09961,-0.0004855678
63.19961,-0.0004850866
63.29961,-0.0004846251
63.3996,-0.0004841448
63.4996,-0.0004836325
63.5996,-0.0004832332
63.6996,-0.0004827539
63.7996,-0.0004822566
63.8996,-0.0004818263
63.9996,-0.000481347
64.09959,-0.0004808535
64.19959,-0.0004803487
64.29959,-0.000479892
64.39959,-0.0004794512
64.49959,-0.00047897
64.59959,-0.0004785171
64.69958,-0.000478033
64.79958,-0.0004776177
64.89958,-0.0004771826
64.99958,-0.0004767635
65.09958,-0.0004762606
65.19958,-0.0004757982
65.29958,-0.0004753396
65.39957,-0.0004748358
65.49957,-0.0004743631
65.59957,-0.0004739581
65.69957,-0.0004734816
65.79957,-0.0004729947
65.89957,-0.0004725615
65.99957,-0.000472085
66.09956,-0.0004716791
66.19956,-0.0004712299
66.29956,-0.0004707845
66.39956,-0.0004703409
66.49956,-0.0004698493
66.59956,-0.000469386
66.69955,-0.0004689199
66.79955,-0.0004684706
66.89955,-0.0004680487
66.99955,-0.0004676109
67.09955,-0.0004671588
67.19955,-0.0004667256
67.29955,-0.000466299
67.39954,-0.0004658423
67.49954,-0.0004654081
67.59954,-0.0004649768
67.69954,-0.0004644815
67.79954,-0.0004640445
67.89954,-0.0004636311
67.99953,-0.0004631894
68.09953,-0.0004627364
68.19953,-0.000462307
68.29953,-0.0004619021
68.39953,-0.0004614567
68.49953,-0.0004610197
68.59953,-0.0004605997
68.69952,-0.0004602013
68.79952,-0.0004597361
68.89952,-0.0004592897
68.99952,-0.0004588838
69.09952,-0.000458477
69.19952,-0.0004580231
69.29951,-0.0004575842
69.39951,-0.0004571689
69.49951,-0.0004567329
69.59951,-0.0004563091
69.69951,-0.0004558543
69.79951,-0.0004554672
69.89951,-0.0004550274
69.9995,-0.0004546027
70.0995,-0.00045421
70.1995,-0.0004537325
70.2995,-0.0004532994
70.3995,-0.0004529283
70.4995,-0.0004525347
70.59949,-0.0004520629
70.69949,-0.000451658
70.79949,-0.000451252
70.89949,-0.0004508235
70.99949,-0.000450412
71.09949,-0.0004499703
71.19949,-0.0004495155
71.29948,-0.0004491096
71.39948,-0.0004487282
71.49948,-0.0004482536
71.59948,-0.0004478646
71.69948,-0.0004474917
71.79948,-0.0004470293
71.89948,-0.0004465999
71.99947,-0.0004462298
72.09947,-0.0004457834
72.19947,-0.0004453577
72.29947,-0.0004449547
72.39947,-0.0004445045
72.49947,-0.0004441118
72.59946,-0.0004437351
72.69946,-0.0004433123
72.79946,-0.0004428932
72.89946,-0.0004425712
72.99946,-0.0004421568
73.09946,-0.0004417933
73.19946,-0.0004414976
73.29945,-0.0004411416
73.39945,-0.0004406792
73.49945,-0.0004402244
73.59945,-0.000439874
73.69945,-0.000439454
73.79945,-0.0004390406
73.89944,-0.0004386507
73.99944,-0.0004382646
74.09944,-0.0004378427
74.19944,-0.0004374443
74.29944,-0.000437014
74.39944,-0.0004365949
74.49944,-0.0004361796
74.59943,-0.0004357973
74.69943,-0.0004354017
74.79943,-0.0004349648
74.89943,-0.0004345834
74.99943,-0.0004342557
75.09943,-0.0004338724
75.19942,-0.0004334401
75.29942,-0.0004330832
75.39942,-0.0004327065
75.49942,-0.0004322752
75.59942,-0.0004318505
75.69942,-0.0004314973
75.79942,-0.0004311574
75.89941,-0.0004307731
75.99941,-0.0004303164
76.09941,-0.0004299133
76.19941,-0.0004295508
76.29941,-0.0004291571
76.39941,-0.0004288144
76.4994,-0.0004285054
76.5994,-0.00042814
76.6994,-0.0004277643
76.7994,-0.000427397
76.8994,-0.0004270006
76.9994,-0.0004266257
77.0994,-0.0004262707
77.19939,-0.0004258592
77.29939,-0.0004254439
77.39939,-0.0004251246
77.49939,-0.0004247329
77.59939,-0.0004242808
77.69939,-0.0004239286
77.79939,-0.0004235595
77.89938,-0.0004231442
77.99938,-0.0004227684
78.09938,-0.0004224021
78.19938,-0.0004220197
78.29938,-0.0004216026
78.39938,-0.0004212447
78.49937,-0.000420868
78.59937,-0.0004204753
78.69937,-0.0004200901
78.79937,-0.0004197389
78.89937,-0.0004193829
78.99937,-0.0004189949
79.09937,-0.0004185928
79.19936,-0.0004182623
79.29936,-0.0004178949
79.39936,-0.0004174825
79.49936,-0.0004170804
79.59936,-0.0004167263
79.69936,-0.0004163298
79.79935,-0.0004159211
79.89935,-0.0004155971
79.99935,-0.0004152449
80.09935,-0.0004148353
80.19935,-0.0004144671
80.29935,-0.0004140998
80.39935,-0.0004137664
80.49934,-0.0004133737
80.59934,-0.0004129961
80.69934,-0.0004126505
80.79934,-0.0004122408
80.89934,-0.0004118745
80.99934,-0.0004115147
81.09933,-0.0004111475
81.19933,-0.0004107773
81.29933,-0.0004104233
81.39933,-0.0004100532
81.49933,-0.0004097113
81.59933,-0.00040941
81.69933,-0.0004090088
81.79932,-0.0004086265
81.89932,-0.000408391
81.99932,-0.0004079983
82.09932,-0.0004075952
82.19932,-0.0004073551
82.29932,-0.0004070236
82.39931,-0.0004066347
82.49931,-0.0004063192
82.59931,-0.000405983
82.69931,-0.0004055687
82.79931,-0.0004052334
82.89931,-0.0004049283
82.99931,-0.0004044725
83.0993,-0.0004041099
83.1993,-0.0004037906
83.2993,-0.0004034723
83.3993,-0.0004030693
83.4993,-0.000402686
83.5993,-0.0004022971
83.6993,-0.0004019335
83.79929,-0.0004015936
83.89929,-0.0004012725
83.99929,-0.0004008694
84.09929,-0.0004004842
84.19929,-0.0004001697
84.29929,-0.0003997789
84.39928,-0.0003994107
84.49928,-0.0003990641
84.59928,-0.0003987025
84.69928,-0.0003983503
84.79928,-0.0003980037
84.89928,-0.0003976223
84.99928,-0.0003972663
85.09927,-0.0003969349
85.19927,-0.0003965977
85.29927,-0.0003962455
85.39927,-0.0003959762
85.49927,-0.0003956183
85.59927,-0.0003952859
85.69926,-0.0003950834
85.79926,-0.000394718
85.89926,-0.0003943055
85.99926,-0.0003939364
86.09926,-0.0003936492
86.19926,-0.0003932913
86.29926,-0.0003928863
86.39925,-0.000392568
86.49925,-0.0003922074
86.59925,-0.0003918146
86.69925,-0.0003915029
86.79925,-0.0003911658
86.89925,-0.0003907825
86.99924,-0.0003904332
87.09924,-0.0003901431
87.19924,-0.0003898088
87.29924,-0.0003894236
87.39924,-0.0003890827
87.49924,-0.0003887474
87.59924,-0.0003883745
87.69923,-0.0003880553
87.79923,-0.0003877407
87.89923,-0.0003874177
87.99923,-0.000387089
88.09923,-0.0003867566
88.19923,-0.0003863922
88.29922,-0.0003860325
88.39922,-0.0003857348
88.49922,-0.0003854175
