EXPID. 0753
[电化学]: i-t : @ 0(V) X 600(sec)
起始电位 (V),0
静置时间 (秒),0
运行时间 (秒),600
记录间隔,0.1
电解液 信息:
HNO3,0.4
0.1,-0.01005814
0.2,-0.01005814
0.3,-0.01005814
0.4,-0.01005814
0.5,-0.01005814
0.6,-0.01005814
0.7,-0.01005814
0.8000001,-0.01005814
0.9000001,-0.01005814
1,-0.01005814
1.1,-0.01005814
1.2,-0.01005814
1.3,-0.002088949
1.4,0.007867108
1.5,0.002368293
1.6,-0.002492245
1.7,-0.004402372
1.8,-0.004774
1.9,-0.004877165
2,-0.004953222
2.1,-0.00498967
2.2,-0.004950945
2.3,-0.004871279
2.4,-0.00476047
2.5,-0.004637077
2.6,-0.004522661
2.7,-0.004410057
2.799999,-0.004301238
2.899999,-0.004204328
2.999999,-0.004110262
3.099999,-0.004018824
3.199999,-0.003935176
3.299999,-0.00385511
3.399999,-0.00377582
3.499999,-0.003701124
3.599999,-0.003632501
3.699999,-0.003560674
3.799999,-0.003494836
3.899998,-0.003431361
3.999998,-0.003363735
4.099998,-0.003300036
4.199998,-0.003235406
4.299998,-0.00317163
4.399998,-0.003108226
4.499998,-0.003046713
4.599998,-0.002990004
4.699998,-0.002932813
4.799998,-0.002879512
4.899998,-0.002829162
4.999998,-0.002781134
5.099998,-0.002733356
5.199997,-0.002689964
5.299997,-0.002647864
5.399997,-0.002605652
5.499997,-0.002563293
5.599997,-0.002524009
5.699997,-0.002484751
5.799997,-0.002447061
5.899997,-0.002411764
5.999997,-0.002378873
6.099997,-0.002346861
6.199996,-0.002316049
6.299996,-0.00228696
6.399996,-0.002259845
6.499996,-0.002232302
6.599996,-0.002207941
6.699996,-0.002183949
6.799996,-0.002160178
6.899996,-0.002137811
6.999996,-0.002116831
7.099996,-0.002095416
7.199996,-0.002075573
7.299995,-0.002057447
7.399995,-0.002037915
7.499995,-0.002020099
7.599995,-0.00200342
7.699995,-0.001986178
7.799995,-0.001969559
7.899995,-0.001953876
7.999995,-0.001938615
8.099995,-0.001923824
8.199995,-0.001908966
8.299995,-0.00189506
8.399996,-0.001881378
8.499996,-0.001867845
8.599997,-0.001855206
8.699997,-0.001842585
8.799997,-0.001829754
8.899998,-0.001818021
8.999998,-0.001806529
9.099998,-0.001794469
9.199999,-0.001783189
9.299999,-0.00177226
9.4,-0.001761002
9.5,-0.001750426
9.6,-0.001740206
9.700001,-0.001729523
9.800001,-0.001719638
9.900002,-0.001710285
10,-0.001700387
10.1,-0.001691045
10.2,-0.001681686
10.3,-0.001672571
10.4,-0.001663666
10.5,-0.001655024
10.6,-0.001646284
10.7,-0.001637675
10.8,-0.001629493
10.90001,-0.001621298
11.00001,-0.001613203
11.10001,-0.001605345
11.20001,-0.001597461
11.30001,-0.001590186
11.40001,-0.001582318
11.50001,-0.001574946
11.60001,-0.0015676
11.70001,-0.0015605
11.80001,-0.001553312
11.90001,-0.001546705
12.00001,-0.001539585
12.10001,-0.001532848
12.20001,-0.00152658
12.30001,-0.001519854
12.40001,-0.001513696
12.50001,-0.00150737
12.60001,-0.001500954
12.70001,-0.001494931
12.80001,-0.001488795
12.90001,-0.001482924
13.00001,-0.001477103
13.10001,-0.001470959
13.20001,-0.001465271
13.30001,-0.001459663
13.40001,-0.001453797
13.50002,-0.001448402
13.60002,-0.001442924
13.70002,-0.001437864
13.80002,-0.001432616
13.90002,-0.001427128
14.00002,-0.001421679
14.10002,-0.001416891
14.20002,-0.00141153
14.30002,-0.001406484
14.40002,-0.001401576
14.50002,-0.0013965
14.60002,-0.001392088
14.70002,-0.001387953
14.80002,-0.00138267
14.90002,-0.001377726
15.00002,-0.001373533
15.10002,-0.00136852
15.20002,-0.001363834
15.30002,-0.001359584
15.40002,-0.001355176
15.50002,-0.001350931
15.60002,-0.001347067
15.70002,-0.001342495
15.80002,-0.001338063
15.90002,-0.001334039
16.00002,-0.001329482
16.10003,-0.001325246
16.20003,-0.001321186
16.30003,-0.001316853
16.40003,-0.001312972
16.50003,-0.001308971
16.60003,-0.001304698
16.70003,-0.00130049
16.80003,-0.001296731
16.90003,-0.001292536
17.00003,-0.00128875
17.10003,-0.001284833
17.20003,-0.001281037
17.30003,-0.001277035
17.40003,-0.001273423
17.50003,-0.001269615
17.60003,-0.001265658
17.70003,-0.001262101
17.80003,-0.001258225
17.90003,-0.001254712
18.00003,-0.001251113
18.10003,-0.001247581
18.20003,-0.001243977
18.30003,-0.001240315
18.40003,-0.001236976
18.50003,-0.001233517
18.60003,-0.001230003
18.70004,-0.001226551
18.80004,-0.001223287
18.90004,-0.001219939
19.00004,-0.001216553
19.10004,-0.001213349
19.20004,-0.001210073
19.30004,-0.001206925
19.40004,-0.001203735
19.50004,-0.00120046
19.60004,-0.00119752
19.70004,-0.001194384
19.80004,-0.001191212
19.90004,-0.001188096
20.00004,-0.001185336
20.10004,-0.001182231
20.20004,-0.001179392
20.30004,-0.001176314
20.40004,-0.001173405
20.50004,-0.001170349
20.60004,-0.001167459
20.70004,-0.001164675
20.80004,-0.001161832
20.90004,-0.00115882
21.00004,-0.001156076
21.10004,-0.001153374
21.20004,-0.001150431
21.30005,-0.001147705
21.40005,-0.001145024
21.50005,-0.001142203
21.60005,-0.001139477
21.70005,-0.001136928
21.80005,-0.001134204
21.90005,-0.001131497
22.00005,-0.001129186
22.10005,-0.001126452
22.20005,-0.001123784
22.30005,-0.001121237
22.40005,-0.001118585
22.50005,-0.001115994
22.60005,-0.001113485
22.70005,-0.001110847
22.80005,-0.001108331
22.90005,-0.00110574
23.00005,-0.001103206
23.10005,-0.001100822
23.20005,-0.001098245
23.30005,-0.001095817
23.40005,-0.001093492
23.50005,-0.001090942
23.60005,-0.001088583
23.70005,-0.00108631
23.80005,-0.001083856
23.90005,-0.001081484
24.00006,-0.001079178
24.10006,-0.001076723
24.20006,-0.001074467
24.30006,-0.001072225
24.40006,-0.001069909
24.50006,-0.001067756
24.60006,-0.001065494
24.70006,-0.001063201
24.80006,-0.001060995
24.90006,-0.001058829
25.00006,-0.00105658
25.10006,-0.001054453
25.20006,-0.00105236
25.30006,-0.00105008
25.40006,-0.001047989
25.50006,-0.001045913
25.60006,-0.001043712
25.70006,-0.001041667
25.80006,-0.001039612
25.90006,-0.001037455
26.00006,-0.001035396
26.10006,-0.001033405
26.20006,-0.001031487
26.30006,-0.001029516
26.40006,-0.001027279
26.50006,-0.001025252
26.60007,-0.001023345
26.70007,-0.00102128
26.80007,-0.001019238
26.90007,-0.001017343
27.00007,-0.00101529
27.10007,-0.001013355
27.20007,-0.001011452
27.30007,-0.001009509
27.40007,-0.001007468
27.50007,-0.001005703
27.60007,-0.001003704
27.70007,-0.001001747
27.80007,-0.0009999311
27.90007,-0.0009978894
28.00007,-0.0009960238
28.10007,-0.0009942392
28.20007,-0.0009923087
28.30007,-0.0009904027
28.40007,-0.0009885427
28.50007,-0.0009868599
28.60007,-0.000985079
28.70007,-0.000983302
28.80007,-0.0009813403
28.90007,-0.0009795765
29.00007,-0.0009778456
29.10007,-0.0009759885
29.20008,-0.0009742331
29.30008,-0.0009724571
29.40008,-0.0009706913
29.50008,-0.0009689057
29.60008,-0.0009672144
29.70008,-0.0009653441
29.80008,-0.0009636038
29.90008,-0.0009620424
30.00008,-0.0009601646
30.10008,-0.0009585034
30.20008,-0.0009568299
30.30008,-0.0009550774
30.40008,-0.0009534425
30.50008,-0.0009517154
30.60008,-0.000950154
30.70008,-0.0009485409
30.80008,-0.0009469549
30.90008,-0.0009452956
31.00008,-0.0009436099
31.10008,-0.0009420052
31.20008,-0.0009403044
31.30008,-0.0009386649
31.40008,-0.0009370329
31.50008,-0.000935349
31.60008,-0.000933766
31.70008,-0.0009323063
31.80009,-0.0009307563
31.90009,-0.0009290301
32.00008,-0.0009275966
32.10008,-0.0009260674
32.20008,-0.0009243016
32.30008,-0.0009228194
32.40008,-0.0009212843
32.50008,-0.0009196099
32.60007,-0.0009181483
32.70007,-0.0009166368
32.80007,-0.0009148994
32.90007,-0.0009134848
33.00007,-0.0009119997
33.10007,-0.000910348
33.20007,-0.000908957
33.30006,-0.0009074917
33.40006,-0.000905935
33.50006,-0.0009045836
33.60006,-0.0009030561
33.70006,-0.0009015173
33.80006,-0.0009000539
33.90005,-0.0008986055
34.00005,-0.0008971242
34.10005,-0.0008957493
34.20005,-0.000894298
34.30005,-0.0008928892
34.40005,-0.0008915237
34.50005,-0.0008902344
34.60004,-0.0008886881
34.70004,-0.0008871766
34.80004,-0.0008858347
34.90004,-0.0008844475
35.00004,-0.0008829784
35.10004,-0.0008815904
35.20004,-0.0008802813
35.30003,-0.00087893
35.40003,-0.000877492
35.50003,-0.0008761189
35.60003,-0.0008748655
35.70003,-0.0008735027
35.80003,-0.0008720101
35.90002,-0.000870654
36.00002,-0.000869297
36.10002,-0.0008680623
36.20002,-0.0008667063
36.30002,-0.0008653143
36.40002,-0.0008639705
36.50002,-0.0008625862
36.60001,-0.0008612697
36.70001,-0.0008598787
36.80001,-0.0008585066
36.90001,-0.0008571928
37.00001,-0.0008558604
37.10001,-0.0008544892
37.2,-0.0008533224
37.3,-0.000851955
37.4,-0.0008506498
37.5,-0.0008492625
37.6,-0.0008479328
37.7,-0.0008466201
37.8,-0.0008453826
37.89999,-0.0008440859
37.99999,-0.0008427948
38.09999,-0.0008415121
38.19999,-0.0008402737
38.29999,-0.0008389289
38.39999,-0.0008377122
38.49998,-0.000836438
38.59998,-0.0008351997
38.69998,-0.0008339453
38.79998,-0.0008326137
38.89998,-0.0008313772
38.99998,-0.0008301802
39.09998,-0.0008289079
39.19997,-0.0008276489
39.29997,-0.0008263832
39.39997,-0.0008251665
39.49997,-0.0008239695
39.59997,-0.0008227669
39.69997,-0.0008215822
39.79996,-0.0008204493
39.89996,-0.000819113
39.99996,-0.0008179811
40.09996,-0.0008168124
40.19996,-0.0008155439
40.29996,-0.0008143224
40.39996,-0.0008132216
40.49995,-0.0008119389
40.59995,-0.0008107984
40.69995,-0.0008096382
40.79995,-0.0008084959
40.89995,-0.0008073894
40.99995,-0.0008064072
41.09995,-0.0008050379
41.19994,-0.0008038325
41.29994,-0.000802838
41.39994,-0.0008015224
41.49994,-0.0008003067
41.59994,-0.000799316
41.69994,-0.0007980117
41.79993,-0.0007968185
41.89993,-0.0007957477
41.99993,-0.0007945772
42.09993,-0.0007934207
42.19993,-0.0007922907
42.29993,-0.0007911492
42.39993,-0.0007900107
42.49992,-0.0007889475
42.59992,-0.0007878174
42.69992,-0.0007866591
42.79992,-0.0007856694
42.89992,-0.0007845788
42.99992,-0.0007834035
43.09991,-0.0007823413
43.19991,-0.0007813242
43.29991,-0.0007802581
43.39991,-0.0007792072
43.49991,-0.0007780479
43.59991,-0.0007769752
43.69991,-0.0007758649
43.7999,-0.0007748224
43.8999,-0.0007737235
43.9999,-0.000772647
44.0999,-0.0007717223
44.1999,-0.0007705282
44.2999,-0.0007694697
44.39989,-0.0007684657
44.49989,-0.0007673893
44.59989,-0.0007663817
44.69989,-0.0007652931
44.79989,-0.0007642167
44.89989,-0.0007631243
44.99989,-0.0007621186
45.09988,-0.0007610628
45.19988,-0.000759993
45.29988,-0.0007590975
45.39988,-0.0007579221
45.49988,-0.0007570275
45.59988,-0.0007559991
45.69987,-0.0007550151
45.79987,-0.0007540327
45.89987,-0.0007529922
45.99987,-0.0007518838
46.09987,-0.0007509816
46.19987,-0.000749926
46.29987,-0.0007488703
46.39986,-0.0007479351
46.49986,-0.0007469274
46.59986,-0.0007458049
46.69986,-0.0007448584
46.79986,-0.0007438508
46.89986,-0.0007428526
46.99986,-0.0007418628
47.09985,-0.0007409032
47.19985,-0.0007398691
47.29985,-0.0007389001
47.39985,-0.000737964
47.49985,-0.0007369366
47.59985,-0.000736008
47.69984,-0.000735072
47.79984,-0.0007340465
47.89984,-0.0007330652
47.99984,-0.0007321244
48.09984,-0.00073108
48.19984,-0.000730175
48.29984,-0.0007292483
48.39983,-0.0007282444
48.49983,-0.0007273215
48.59983,-0.0007264401
48.69983,-0.0007254974
48.79983,-0.0007245632
48.89983,-0.0007236676
48.99982,-0.0007226901
49.09982,-0.0007217342
49.19982,-0.0007210091
49.29982,-0.0007199685
49.39982,-0.0007188968
49.49982,-0.0007181133
49.59982,-0.000717195
49.69981,-0.0007161545
49.79981,-0.0007151986
49.89981,-0.0007142682
49.99981,-0.0007133208
50.09981,-0.0007124544
50.19981,-0.0007114825
50.2998,-0.0007104853
50.3998,-0.0007095303
50.4998,-0.0007087195
50.5998,-0.0007077702
50.6998,-0.0007068134
50.7998,-0.0007058707
50.8998,-0.0007049582
50.99979,-0.0007040993
51.09979,-0.0007031802
51.19979,-0.0007022027
51.29979,-0.0007013091
51.39979,-0.0007003974
51.49979,-0.0006994444
51.59978,-0.0006985714
51.69978,-0.0006976814
51.79978,-0.0006967887
51.89978,-0.0006959336
51.99978,-0.0006949985
52.09978,-0.0006940907
52.19978,-0.0006932742
52.29977,-0.000692355
52.39977,-0.0006914519
52.49977,-0.0006906242
52.59977,-0.0006897295
52.69977,-0.0006887849
52.79977,-0.0006879939
52.89977,-0.0006871021
52.99976,-0.0006861999
53.09976,-0.0006853693
53.19976,-0.0006845057
53.29976,-0.0006835828
53.39976,-0.0006827362
53.49976,-0.0006818782
53.59975,-0.0006809836
53.69975,-0.0006801775
53.79975,-0.0006793704
53.89975,-0.0006784645
53.99975,-0.0006776273
54.09975,-0.0006768004
54.19975,-0.0006759294
54.29974,-0.0006751166
54.39974,-0.000674254
54.49974,-0.0006733575
54.59974,-0.00067259
54.69974,-0.0006717349
54.79974,-0.0006708761
54.89973,-0.0006700313
54.99973,-0.0006691866
55.09973,-0.0006683748
55.19973,-0.0006675809
55.29973,-0.0006667682
55.39973,-0.0006658689
55.49973,-0.0006650768
55.59972,-0.0006642735
55.69972,-0.0006634232
55.79972,-0.0006626283
55.89972,-0.0006617695
55.99972,-0.0006609624
56.09972,-0.0006601667
56.19971,-0.0006593333
56.29971,-0.0006584584
56.39971,-0.0006577153
56.49971,-0.0006569526
56.59971,-0.00065612
56.69971,-0.0006553064
56.79971,-0.0006545464
56.8997,-0.0006537101
56.9997,-0.0006530104
57.0997,-0.0006521846
57.1997,-0.000651369
57.2997,-0.0006506156
57.3997,-0.000649785
57.49969,-0.0006490345
57.59969,-0.0006482039
57.69969,-0.0006474712
57.79969,-0.0006466622
57.89969,-0.0006458231
57.99969,-0.0006450773
58.09969,-0.0006443907
58.19968,-0.0006435856
58.29968,-0.000642804
58.39968,-0.0006420251
58.49968,-0.0006411832
58.59968,-0.000640412
58.69968,-0.0006396624
58.79967,-0.0006388355
58.89967,-0.0006380567
58.99967,-0.0006373466
59.09967,-0.0006365348
59.19967,-0.0006357429
59.29967,-0.0006350054
59.39967,-0.0006342079
59.49966,-0.0006334799
59.59966,-0.0006328423
59.69966,-0.0006320277
59.79966,-0.0006312743
59.89966,-0.0006305341
59.99966,-0.0006298231
60.09966,-0.0006289859
60.19965,-0.0006282467
60.29965,-0.0006274565
60.39965,-0.0006267107
60.49965,-0.0006259705
60.59965,-0.0006252312
60.69965,-0.0006244552
60.79964,-0.0006237038
60.89964,-0.0006229194
60.99964,-0.000622197
61.09964,-0.0006214794
61.19964,-0.0006207091
61.29964,-0.0006199425
61.39964,-0.0006192193
61.49963,-0.0006184838
61.59963,-0.0006177906
61.69963,-0.0006170787
61.79963,-0.0006162866
61.89963,-0.0006156077
61.99963,-0.0006149146
62.09962,-0.0006141631
62.19962,-0.0006134078
62.29962,-0.0006127383
62.39962,-0.000611967
62.49962,-0.0006112484
62.59962,-0.0006105619
62.69962,-0.0006097793
62.79961,-0.0006090382
62.89961,-0.0006083602
62.99961,-0.0006076585
63.09961,-0.0006069155
63.19961,-0.0006062168
63.29961,-0.0006054794
63.3996,-0.0006048682
63.4996,-0.0006041327
63.5996,-0.0006033944
63.6996,-0.0006026636
63.7996,-0.0006019517
63.8996,-0.0006013216
63.9996,-0.0006005928
64.09959,-0.0005998648
64.19959,-0.0005992103
64.29959,-0.0005985416
64.39959,-0.0005978711
64.49959,-0.0005971818
64.59959,-0.0005964378
64.69958,-0.0005958492
64.79958,-0.0005952729
64.89958,-0.0005945045
64.99958,-0.0005937794
65.09958,-0.0005931615
65.19958,-0.0005923902
65.29958,-0.0005917528
65.39957,-0.0005911152
65.49957,-0.0005904418
65.59957,-0.0005897223
65.69957,-0.0005890123
65.79957,-0.0005883183
65.89957,-0.0005876524
65.99957,-0.00058698
66.09956,-0.0005862832
66.19956,-0.0005856729
66.29956,-0.0005849713
66.39956,-0.0005842706
66.49956,-0.0005836557
66.59956,-0.0005829625
66.69955,-0.0005822101
66.79955,-0.0005816075
66.89955,-0.0005809708
66.99955,-0.0005802824
67.09955,-0.0005796571
67.19955,-0.0005789932
67.29955,-0.0005783623
67.39954,-0.0005776898
67.49954,-0.0005770682
67.59954,-0.0005763761
67.69954,-0.0005758035
67.79954,-0.0005751123
67.89954,-0.0005743929
67.99953,-0.0005737685
68.09953,-0.0005731347
68.19953,-0.0005724293
68.29953,-0.0005718162
68.39953,-0.000571173
68.49953,-0.0005704941
68.59953,-0.0005698556
68.69952,-0.0005692407
68.79952,-0.0005685155
68.89952,-0.0005678987
68.99952,-0.0005672753
69.09952,-0.0005666594
69.19952,-0.0005660811
69.29951,-0.0005654426
69.39951,-0.0005647937
69.49951,-0.0005641599
69.59951,-0.0005635234
69.69951,-0.0005628444
69.79951,-0.0005622699
69.89951,-0.000561637
69.9995,-0.0005609411
70.0995,-0.0005603121
70.1995,-0.0005597206
70.2995,-0.0005589927
70.3995,-0.0005585162
70.4995,-0.000557889
70.59949,-0.0005572232
70.69949,-0.0005565658
70.79949,-0.0005559113
70.89949,-0.0005552483
70.99949,-0.0005546137
71.09949,-0.0005540279
71.19949,-0.0005533272
71.29948,-0.0005526718
71.39948,-0.000552053
71.49948,-0.0005514871
71.59948,-0.0005508872
71.69948,-0.0005502393
71.79948,-0.0005496423
71.89948,-0.0005489943
71.99947,-0.0005483972
72.09947,-0.0005477748
72.19947,-0.0005471693
72.29947,-0.0005465524
72.39947,-0.0005459412
72.49947,-0.0005453631
72.59946,-0.00054475
72.69946,-0.000544167
72.79946,-0.0005435483
72.89946,-0.0005429512
72.99946,-0.0005423419
73.09946,-0.0005417929
73.19946,-0.0005411723
73.29945,-0.0005405677
73.39945,-0.0005399283
73.49945,-0.0005394094
73.59945,-0.000538916
73.69945,-0.0005382256
73.79945,-0.0005376389
73.89944,-0.0005370193
73.99944,-0.0005364071
74.09944,-0.0005358685
74.19944,-0.000535295
74.29944,-0.0005346338
74.39944,-0.0005340782
74.49944,-0.0005335019
74.59943,-0.0005328653
74.69943,-0.0005322494
74.79943,-0.0005317277
74.89943,-0.0005311589
74.99943,-0.0005305646
75.09943,-0.0005299525
75.19942,-0.0005293583
75.29942,-0.000528814
75.39942,-0.0005282659
75.49942,-0.0005276604
75.59942,-0.0005271
75.69942,-0.000526536
75.79942,-0.0005259342
75.89941,-0.0005253869
75.99941,-0.0005247843
76.09941,-0.0005241741
76.19941,-0.0005236128
76.29941,-0.0005230553
76.39941,-0.0005224526
76.4994,-0.0005219186
76.5994,-0.0005213282
76.6994,-0.0005206869
76.7994,-0.0005201802
76.8994,-0.0005196349
76.9994,-0.0005190416
77.0994,-0.0005184511
77.19939,-0.0005179144
77.29939,-0.0005173163
77.39939,-0.0005167475
77.49939,-0.0005162428
77.59939,-0.0005156542
77.69939,-0.000515077
77.79939,-0.0005145636
77.89938,-0.000513994
77.99938,-0.0005134656
78.09938,-0.0005129034
78.19938,-0.0005123412
78.29938,-0.0005117734
78.39938,-0.0005112431
78.49937,-0.0005106791
78.59937,-0.0005101177
78.69937,-0.0005096205
78.79937,-0.000509063
78.89937,-0.0005085055
78.99937,-0.0005079904
79.09937,-0.0005074508
79.19936,-0.0005069291
79.29936,-0.0005064921
79.39936,-0.0005058781
79.49936,-0.000505315
79.59936,-0.0005048789
79.69936,-0.0005043111
79.79935,-0.0005037838
79.89935,-0.0005032903
79.99935,-0.0005026583
80.09935,-0.0005021262
80.19935,-0.0005017552
80.29935,-0.0005013041
80.39935,-0.0005006722
80.49934,-0.0005001383
80.59934,-0.0004996429
80.69934,-0.0004990365
80.79934,-0.000498509
80.89934,-0.0004979855
80.99934,-0.0004973875
81.09933,-0.0004968771
81.19933,-0.0004963421
81.29933,-0.0004957808
81.39933,-0.0004952751
81.49933,-0.0004947336
81.59933,-0.00049418
81.69933,-0.0004936893
81.79932,-0.0004931336
81.89932,-0.000492627
81.99932,-0.0004921684
82.09932,-0.0004916344
82.19932,-0.000491076
82.29932,-0.0004906032
82.39931,-0.0004900749
82.49931,-0.0004895287
82.59931,-0.0004890192
82.69931,-0.0004884853
82.79931,-0.0004879315
82.89931,-0.000487456
82.99931,-0.0004869117
83.0993,-0.0004863739
83.1993,-0.000485856
83.2993,-0.000485371
83.3993,-0.00048482
83.4993,-0.0004842917
83.5993,-0.000483755
83.6993,-0.0004832342
83.79929,-0.0004827407
83.89929,-0.0004822397
83.99929,-0.0004816878
84.09929,-0.0004811464
84.19929,-0.000480634
84.29929,-0.0004801302
84.39928,-0.0004796358
84.49928,-0.0004790745
84.59928,-0.0004785745
84.69928,-0.0004780622
84.79928,-0.0004775941
84.89928,-0.0004770932
84.99928,-0.0004765818
85.09927,-0.000476094
85.19927,-0.000475576
85.29927,-0.0004750713
85.39927,-0.0004745674
85.49927,-0.00047409
85.59927,-0.0004735975
85.69926,-0.0004730842
85.79926,-0.0004725729
85.89926,-0.0004720417
85.99926,-0.0004715784
86.09926,-0.0004711037
86.19926,-0.0004705924
86.29926,-0.000470082
86.39925,-0.0004695904
86.49925,-0.0004690913
86.59925,-0.0004686646
86.69925,-0.000468158
86.79925,-0.0004676598
86.89925,-0.0004671805
86.99924,-0.0004666814
87.09924,-0.000466186
87.19924,-0.0004657443
87.29924,-0.0004652528
87.39924,-0.0004647141
87.49924,-0.0004642366
87.59924,-0.0004637921
87.69923,-0.0004632845
87.79923,-0.0004628344
87.89923,-0.0004623663
87.99923,-0.0004618804
88.09923,-0.0004614058
88.19923,-0.0004609651
88.29922,-0.000460449
88.39922,-0.0004599678
88.49922,-0.0004595393
88.59922,-0.0004590289
88.69922,-0.0004585721
88.79922,-0.0004580994
88.89922,-0.000457604
88.99921,-0.0004571558
89.09921,-0.0004566971
89.19921,-0.0004561848
89.29921,-0.0004557347
