EXPID. 0905
[电化学]: i-t : @ 0(V) X 600(sec)
起始电位 (V),0
静置时间 (秒),0
运行时间 (秒),600
记录间隔,0.1
电解液 信息:
HNO3,0.4
0.1,-0.01005814
0.2,-0.01005814
0.3,-0.01005814
0.4,-0.01005814
0.5,-0.01005814
0.6,-0.01005814
0.7,-0.01005814
0.8000001,-0.01005814
0.9000001,-0.01005814
1,-0.009580836
1.1,0.0008400613
1.2,0.003061252
1.3,0.002642869
1.4,-0.000457507
1.5,-0.002427537
1.6,-0.003315643
1.7,-0.003779533
1.8,-0.003959014
1.9,-0.003973539
2,-0.003910852
2.1,-0.003828758
2.2,-0.003741993
2.3,-0.003644148
2.4,-0.003557258
2.5,-0.003480266
2.6,-0.00339962
2.7,-0.00333026
2.799999,-0.003267445
2.899999,-0.00319558
2.999999,-0.003131847
3.099999,-0.003071194
3.199999,-0.003010698
3.299999,-0.002953065
3.399999,-0.002895994
3.499999,-0.002839876
3.599999,-0.002786832
3.699999,-0.002729997
3.799999,-0.0026755
3.899998,-0.002623621
3.999998,-0.002568579
4.099998,-0.002516179
4.199998,-0.002470348
4.299998,-0.002422977
4.399998,-0.002375206
4.499998,-0.002332228
4.599998,-0.002290534
4.699998,-0.0022498
4.799998,-0.002211363
4.899998,-0.002174112
4.999998,-0.002136396
5.099998,-0.002101783
5.199997,-0.002069514
5.299997,-0.002037097
5.399997,-0.002007785
5.499997,-0.001979837
5.599997,-0.001951789
5.699997,-0.001926174
5.799997,-0.001902498
5.899997,-0.001878431
5.999997,-0.001856338
6.099997,-0.001836658
6.199996,-0.001815931
6.299996,-0.001796376
6.399996,-0.001777617
6.499996,-0.001759522
6.599996,-0.001741819
6.699996,-0.001724814
6.799996,-0.001708342
6.899996,-0.001692808
6.999996,-0.001677236
7.099996,-0.001661922
7.199996,-0.001647593
7.299995,-0.001633693
7.399995,-0.00162033
7.499995,-0.001607917
7.599995,-0.001594667
7.699995,-0.001582698
7.799995,-0.001570893
7.899995,-0.001559483
7.999995,-0.00154845
8.099995,-0.001537477
8.199995,-0.001526699
8.299995,-0.001517169
8.399996,-0.00150697
8.499996,-0.001496957
8.599997,-0.001487248
8.699997,-0.001477369
8.799997,-0.001467873
8.899998,-0.001459073
8.999998,-0.001449601
9.099998,-0.001440655
9.199999,-0.001432443
9.299999,-0.001423656
9.4,-0.001415234
9.5,-0.001407348
9.6,-0.001399285
9.700001,-0.001391265
9.800001,-0.00138418
9.900002,-0.001376722
10,-0.001369343
10.1,-0.00136221
10.2,-0.001355464
10.3,-0.001348502
10.4,-0.001341301
10.5,-0.001334945
10.6,-0.001328594
10.7,-0.001321799
10.8,-0.001315538
10.90001,-0.001309613
11.00001,-0.001303248
11.10001,-0.001296976
11.20001,-0.001291522
11.30001,-0.001285812
11.40001,-0.001280178
11.50001,-0.001274493
11.60001,-0.001268811
11.70001,-0.001263361
11.80001,-0.001257898
11.90001,-0.001252269
12.00001,-0.001247132
12.10001,-0.001242007
12.20001,-0.001236535
12.30001,-0.001231504
12.40001,-0.001226436
12.50001,-0.001221487
12.60001,-0.001216704
12.70001,-0.001211854
12.80001,-0.001206925
12.90001,-0.001202609
13.00001,-0.001197859
13.10001,-0.001193295
13.20001,-0.001188673
13.30001,-0.001184493
13.40001,-0.001180286
13.50002,-0.001175779
13.60002,-0.001171739
13.70002,-0.001167802
13.80002,-0.001163344
13.90002,-0.001159537
14.00002,-0.001155698
14.10002,-0.001151543
14.20002,-0.00114776
14.30002,-0.001144218
14.40002,-0.001139932
14.50002,-0.001135915
14.60002,-0.001132197
14.70002,-0.001128247
14.80002,-0.001124854
14.90002,-0.001121229
15.00002,-0.001117306
15.10002,-0.001113605
15.20002,-0.001109863
15.30002,-0.001106194
15.40002,-0.001102634
15.50002,-0.001099058
15.60002,-0.001095415
15.70002,-0.001091989
15.80002,-0.001088505
15.90002,-0.001084871
16.00002,-0.001081623
16.10003,-0.00107834
16.20003,-0.001074997
16.30003,-0.001071765
16.40003,-0.00106872
16.50003,-0.001065548
16.60003,-0.001062059
16.70003,-0.001059127
16.80003,-0.001055983
16.90003,-0.00105271
17.00003,-0.001049781
17.10003,-0.001047054
17.20003,-0.00104361
17.30003,-0.001040751
17.40003,-0.001038071
17.50003,-0.001034964
17.60003,-0.001031999
17.70003,-0.001028954
17.80003,-0.001026
17.90003,-0.001023143
18.00003,-0.001020247
18.10003,-0.001017356
18.20003,-0.001014809
18.30003,-0.001011925
18.40003,-0.001008942
18.50003,-0.001006369
18.60003,-0.001003706
18.70004,-0.001000811
18.80004,-0.0009982841
18.90004,-0.000995553
19.00004,-0.0009930207
19.10004,-0.0009903113
19.20004,-0.0009877139
19.30004,-0.0009850386
19.40004,-0.0009824958
19.50004,-0.0009799221
19.60004,-0.0009772985
19.70004,-0.000974768
19.80004,-0.0009722536
19.90004,-0.0009697514
20.00004,-0.0009672248
20.10004,-0.000964764
20.20004,-0.000962388
20.30004,-0.0009599311
20.40004,-0.000957458
20.50004,-0.0009549248
20.60004,-0.0009524933
20.70004,-0.0009502341
20.80004,-0.0009480144
20.90004,-0.00094545
21.00004,-0.000943124
21.10004,-0.0009409071
21.20004,-0.0009384945
21.30005,-0.0009361655
21.40005,-0.0009339525
21.50005,-0.0009316518
21.60005,-0.0009293361
21.70005,-0.0009272295
21.80005,-0.000924942
21.90005,-0.0009228165
22.00005,-0.000920545
22.10005,-0.0009185015
22.20005,-0.0009164297
22.30005,-0.0009141459
22.40005,-0.0009119989
22.50005,-0.0009100796
22.60005,-0.0009078618
22.70005,-0.0009057797
22.80005,-0.0009038877
22.90005,-0.0009019467
23.00005,-0.0008998853
23.10005,-0.0008978455
23.20005,-0.0008959009
23.30005,-0.0008937829
23.40005,-0.0008917817
23.50005,-0.0008897089
23.60005,-0.0008877172
23.70005,-0.0008857377
23.80005,-0.0008839606
23.90005,-0.000882112
24.00006,-0.0008799093
24.10006,-0.0008778017
24.20006,-0.0008761113
24.30006,-0.0008740725
24.40006,-0.0008719997
24.50006,-0.0008700315
24.60006,-0.0008680962
24.70006,-0.0008661487
24.80006,-0.0008642907
24.90006,-0.0008622613
25.00006,-0.0008603712
25.10006,-0.0008586243
25.20006,-0.0008565742
25.30006,-0.0008547274
25.40006,-0.0008528553
25.50006,-0.0008509774
25.60006,-0.0008491297
25.70006,-0.0008473282
25.80006,-0.000845441
25.90006,-0.0008436066
26.00006,-0.000841838
26.10006,-0.0008400467
26.20006,-0.0008382584
26.30006,-0.0008364107
26.40006,-0.0008346629
26.50006,-0.0008329725
26.60007,-0.0008311408
26.70007,-0.0008294062
26.80007,-0.0008276084
26.90007,-0.0008257956
27.00007,-0.000824157
27.10007,-0.0008224534
27.20007,-0.0008206678
27.30007,-0.0008190113
27.40007,-0.000817303
27.50007,-0.0008155976
27.60007,-0.0008139627
27.70007,-0.0008122638
27.80007,-0.0008105668
27.90007,-0.0008089611
28.00007,-0.0008072435
28.10007,-0.0008055285
28.20007,-0.0008039879
28.30007,-0.0008022419
28.40007,-0.0008006532
28.50007,-0.0007991238
28.60007,-0.0007973958
28.70007,-0.0007957194
28.80007,-0.0007941647
28.90007,-0.000792462
29.00007,-0.0007908658
29.10007,-0.0007893034
29.20008,-0.0007875735
29.30008,-0.000786095
29.40008,-0.0007846108
29.50008,-0.0007829646
29.60008,-0.0007814362
29.70008,-0.0007799747
29.80008,-0.0007783502
29.90008,-0.0007769337
30.00008,-0.0007755767
30.10008,-0.0007738883
30.20008,-0.0007724597
30.30008,-0.0007710329
30.40008,-0.0007694395
30.50008,-0.0007678856
30.60008,-0.0007663874
30.70008,-0.0007647883
30.80008,-0.0007633306
30.90008,-0.0007618633
31.00008,-0.0007603235
31.10008,-0.0007588733
31.20008,-0.0007574305
31.30008,-0.0007559549
31.40008,-0.0007546421
31.50008,-0.000753188
31.60008,-0.0007516888
31.70008,-0.0007502697
31.80009,-0.0007488645
31.90009,-0.0007473437
32.00008,-0.0007459151
32.10008,-0.0007444667
32.20008,-0.0007430955
32.30008,-0.0007417112
32.40008,-0.0007402703
32.50008,-0.0007388662
32.60007,-0.0007374819
32.70007,-0.0007360806
32.80007,-0.0007347028
32.90007,-0.0007332441
33.00007,-0.0007318682
33.10007,-0.0007305988
33.20007,-0.0007292493
33.30006,-0.0007278282
33.40006,-0.0007265013
33.50006,-0.0007250689
33.60006,-0.0007238183
33.70006,-0.0007224829
33.80006,-0.000721075
33.90005,-0.0007197556
34.00005,-0.0007184994
34.10005,-0.0007170604
34.20005,-0.0007156705
34.30005,-0.0007143859
34.40005,-0.0007131381
34.50005,-0.0007118027
34.60004,-0.0007105634
34.70004,-0.0007091141
34.80004,-0.000707822
34.90004,-0.0007065215
35.00004,-0.0007052143
35.10004,-0.0007039807
35.20004,-0.0007026999
35.30003,-0.0007013778
35.40003,-0.0007001431
35.50003,-0.0006989048
35.60003,-0.0006975722
35.70003,-0.0006963819
35.80003,-0.0006951153
35.90002,-0.0006938157
36.00002,-0.0006925717
36.10002,-0.0006913728
36.20002,-0.0006900327
36.30002,-0.0006888622
36.40002,-0.0006876257
36.50002,-0.0006864005
36.60001,-0.0006852073
36.70001,-0.0006839614
36.80001,-0.0006827851
36.90001,-0.0006816617
37.00001,-0.0006806701
37.10001,-0.0006795164
37.2,-0.0006783053
37.3,-0.0006771301
37.4,-0.0006760226
37.5,-0.0006747851
37.6,-0.0006734686
37.7,-0.0006723197
37.8,-0.0006711067
37.89999,-0.0006699409
37.99999,-0.0006687195
38.09999,-0.0006675159
38.19999,-0.0006663058
38.29999,-0.0006651399
38.39999,-0.0006638507
38.49998,-0.0006627574
38.59998,-0.0006616085
38.69998,-0.0006602919
38.79998,-0.000659272
38.89998,-0.0006581213
38.99998,-0.0006568556
39.09998,-0.0006557311
39.19997,-0.0006546632
39.29997,-0.0006534757
39.39997,-0.0006523183
39.49997,-0.0006512164
39.59997,-0.000650012
39.69997,-0.0006489478
39.79996,-0.000647862
39.89996,-0.0006466575
39.99996,-0.0006455105
40.09996,-0.0006444689
40.19996,-0.0006432956
40.29996,-0.0006422116
40.39996,-0.0006411427
40.49995,-0.0006399656
40.59995,-0.0006388185
40.69995,-0.000637728
40.79995,-0.0006366856
40.89995,-0.0006355771
40.99995,-0.0006345092
41.09995,-0.0006334035
41.19994,-0.000632234
41.29994,-0.0006311416
41.39994,-0.0006300529
41.49994,-0.0006290048
41.59994,-0.0006278935
41.69994,-0.0006268736
41.79993,-0.000625769
41.89993,-0.0006247397
41.99993,-0.0006236567
42.09993,-0.0006226236
42.19993,-0.0006214851
42.29993,-0.0006204944
42.39993,-0.0006193953
42.49992,-0.0006183886
42.59992,-0.0006173358
42.69992,-0.0006162905
42.79992,-0.000615263
42.89992,-0.0006141395
42.99992,-0.0006131573
43.09991,-0.0006121478
43.19991,-0.0006110705
43.29991,-0.0006100684
43.39991,-0.0006090307
43.49991,-0.0006079948
43.59991,-0.0006068958
43.69991,-0.0006059211
43.7999,-0.0006049181
43.8999,-0.0006038577
43.9999,-0.0006028604
44.0999,-0.0006018961
44.1999,-0.0006008621
44.2999,-0.0005998149
44.39989,-0.0005988308
44.49989,-0.0005978401
44.59989,-0.0005968937
44.69989,-0.0005958822
44.79989,-0.0005948689
44.89989,-0.0005939092
44.99989,-0.0005929534
45.09988,-0.000591893
45.19988,-0.0005909795
45.29988,-0.0005899634
45.39988,-0.0005889219
45.49988,-0.0005880028
45.59988,-0.0005870186
45.69987,-0.0005860345
45.79987,-0.0005851182
45.89987,-0.0005841398
45.99987,-0.0005830982
46.09987,-0.0005821253
46.19987,-0.0005812157
46.29987,-0.0005802334
46.39986,-0.0005793048
46.49986,-0.0005783651
46.59986,-0.0005774092
46.69986,-0.0005764636
46.79986,-0.0005755229
46.89986,-0.0005745426
46.99986,-0.0005735772
47.09985,-0.0005726516
47.19985,-0.0005717258
47.29985,-0.0005707511
47.39985,-0.0005697887
47.49985,-0.0005688696
47.59985,-0.0005679551
47.69984,-0.0005670256
47.79984,-0.0005660887
47.89984,-0.0005651657
47.99984,-0.000564369
48.09984,-0.00056348
48.19984,-0.0005624385
48.29984,-0.0005616691
48.39983,-0.0005606869
48.49983,-0.0005596764
48.59983,-0.0005588156
48.69983,-0.0005580246
48.79983,-0.0005571516
48.89983,-0.0005563154
48.99982,-0.0005556279
49.09982,-0.0005547662
49.19982,-0.0005537209
49.29982,-0.0005528526
49.39982,-0.0005519561
49.49982,-0.0005509333
49.59982,-0.0005499247
49.69981,-0.0005490753
49.79981,-0.0005482136
49.89981,-0.0005472521
49.99981,-0.0005462642
50.09981,-0.0005454845
50.19981,-0.0005446285
50.2998,-0.0005436698
50.3998,-0.0005426989
50.4998,-0.0005418729
50.5998,-0.000540999
50.6998,-0.0005401345
50.7998,-0.0005392983
50.8998,-0.0005384055
50.99979,-0.0005374808
51.09979,-0.0005366331
51.19979,-0.0005357658
51.29979,-0.0005348881
51.39979,-0.0005340208
51.49979,-0.0005331609
51.59978,-0.0005322616
51.69978,-0.0005314376
51.79978,-0.0005306014
51.89978,-0.0005297152
51.99978,-0.0005288658
52.09978,-0.0005280323
52.19978,-0.0005272083
52.29977,-0.0005263588
52.39977,-0.0005254991
52.49977,-0.0005246091
52.59977,-0.0005237926
52.69977,-0.0005229554
52.79977,-0.0005222161
52.89977,-0.0005212942
52.99976,-0.0005203987
53.09976,-0.0005195803
53.19976,-0.0005189343
53.29976,-0.0005181206
53.39976,-0.0005171722
53.49976,-0.0005163068
53.59975,-0.0005155695
53.69975,-0.0005147276
53.79975,-0.0005138508
53.89975,-0.000513008
53.99975,-0.0005122169
54.09975,-0.0005113542
54.19975,-0.00051055
54.29974,-0.0005097288
54.39974,-0.000508951
54.49974,-0.0005081157
54.59974,-0.0005073086
54.69974,-0.0005065034
54.79974,-0.0005056983
54.89973,-0.0005048629
54.99973,-0.0005040728
55.09973,-0.0005032695
55.19973,-0.0005024813
55.29973,-0.0005017589
55.39973,-0.0005009359
55.49973,-0.0005001043
55.59972,-0.0004993538
55.69972,-0.0004985844
55.79972,-0.0004977867
55.89972,-0.0004970249
55.99972,-0.0004962593
56.09972,-0.0004954399
56.19971,-0.000494712
56.29971,-0.0004939313
56.39971,-0.0004931318
56.49971,-0.0004923652
56.59971,-0.0004916476
56.69971,-0.0004908707
56.79971,-0.0004900608
56.8997,-0.0004892688
56.9997,-0.0004884918
57.0997,-0.0004876989
57.1997,-0.000486954
57.2997,-0.0004861761
57.3997,-0.0004854293
57.49969,-0.0004848492
57.59969,-0.0004840384
57.69969,-0.0004831692
57.79969,-0.0004823979
57.89969,-0.0004816521
57.99969,-0.000480813
58.09969,-0.0004800568
58.19968,-0.0004792827
58.29968,-0.0004784634
58.39968,-0.0004777382
58.49968,-0.0004770526
58.59968,-0.0004762739
58.69968,-0.0004755148
58.79967,-0.0004747802
58.89967,-0.0004740005
58.99967,-0.000473346
59.09967,-0.0004725436
59.19967,-0.0004717743
59.29967,-0.000471067
59.39967,-0.0004703937
59.49966,-0.0004696017
59.59966,-0.000468885
59.69966,-0.0004681693
59.79966,-0.0004674009
59.89966,-0.0004667473
59.99966,-0.0004660843
60.09966,-0.0004652951
60.19965,-0.0004645399
60.29965,-0.0004638307
60.39965,-0.0004630162
60.49965,-0.0004623381
60.59965,-0.0004616911
60.69965,-0.0004609321
60.79964,-0.0004602145
60.89964,-0.0004594658
60.99964,-0.0004587661
61.09964,-0.0004580551
61.19964,-0.0004573733
61.29964,-0.0004565982
61.39964,-0.0004558957
61.49963,-0.0004551734
61.59963,-0.0004544718
61.69963,-0.0004537665
61.79963,-0.0004530715
61.89963,-0.0004523849
61.99963,-0.0004516702
62.09962,-0.0004509884
62.19962,-0.0004502548
62.29962,-0.0004495833
62.39962,-0.0004488836
62.49962,-0.0004481434
62.59962,-0.0004474606
62.69962,-0.0004468608
62.79961,-0.0004461478
62.89961,-0.0004453502
62.99961,-0.0004446863
63.09961,-0.0004440195
63.19961,-0.0004433556
63.29961,-0.0004426917
63.3996,-0.0004420381
63.4996,-0.0004414316
63.5996,-0.0004407988
63.6996,-0.0004401
63.7996,-0.0004393928
63.8996,-0.0004387628
63.9996,-0.0004380649
64.09959,-0.0004373511
64.19959,-0.0004367475
64.29959,-0.0004361071
64.39959,-0.0004353565
64.49959,-0.0004347246
64.59959,-0.0004340259
64.69958,-0.0004333658
64.79958,-0.0004326999
64.89958,-0.0004319917
64.99958,-0.0004313636
65.09958,-0.0004307242
65.19958,-0.0004301319
65.29958,-0.0004295027
65.39957,-0.0004288124
65.49957,-0.0004281542
65.59957,-0.0004274799
65.69957,-0.0004268527
65.79957,-0.0004261841
65.89957,-0.0004254957
65.99957,-0.0004248609
66.09956,-0.0004242338
66.19956,-0.0004235764
66.29956,-0.0004230001
66.39956,-0.0004223465
66.49956,-0.0004216553
66.59956,-0.0004210149
66.69955,-0.0004204499
66.79955,-0.0004197483
66.89955,-0.0004190589
66.99955,-0.0004184176
67.09955,-0.0004178253
67.19955,-0.0004172197
67.29955,-0.0004166123
67.39954,-0.0004159286
67.49954,-0.0004152647
67.59954,-0.0004146611
67.69954,-0.0004140545
67.79954,-0.0004134161
67.89954,-0.0004128379
67.99953,-0.0004122502
68.09953,-0.0004115091
68.19953,-0.0004108904
68.29953,-0.000410298
68.39953,-0.0004096595
68.49953,-0.0004090559
68.59953,-0.0004085106
68.69952,-0.000407874
68.79952,-0.0004072119
68.89952,-0.0004066535
68.99952,-0.0004060715
69.09952,-0.0004053276
69.19952,-0.0004047418
69.29951,-0.0004041965
69.39951,-0.0004035053
69.49951,-0.0004028442
69.59951,-0.0004021897
69.69951,-0.000401603
69.79951,-0.0004010399
69.89951,-0.0004003882
69.9995,-0.0003997516
70.0995,-0.0003992082
70.1995,-0.000398597
70.2995,-0.0003979312
70.3995,-0.0003974152
70.4995,-0.000396819
70.59949,-0.0003962399
70.69949,-0.000395639
70.79949,-0.0003949949
70.89949,-0.0003944336
70.99949,-0.0003939223
71.09949,-0.0003933186
71.19949,-0.0003926481
71.29948,-0.0003920689
71.39948,-0.0003914879
71.49948,-0.0003909002
71.59948,-0.0003904463
71.69948,-0.0003899698
71.79948,-0.0003892626
71.89948,-0.00038861
71.99947,-0.0003881447
72.09947,-0.0003875787
72.19947,-0.0003869158
72.29947,-0.0003863865
72.39947,-0.0003857528
72.49947,-0.0003851519
72.59946,-0.0003845605
72.69946,-0.0003840406
72.79946,-0.0003834624
72.89946,-0.0003828748
72.99946,-0.0003822975
73.09946,-0.0003817617
73.19946,-0.0003811975
73.29945,-0.0003805892
73.39945,-0.0003800421
73.49945,-0.00037951
73.59945,-0.000378928
73.69945,-0.0003783263
73.79945,-0.0003777735
73.89944,-0.0003772018
73.99944,-0.0003766349
74.09944,-0.0003760548
74.19944,-0.0003754973
74.29944,-0.0003749134
74.39944,-0.0003743974
74.49944,-0.0003738634
74.59943,-0.0003732691
74.69943,-0.0003727465
74.79943,-0.0003722521
74.89943,-0.0003716955
74.99943,-0.0003711182
75.09943,-0.0003706012
75.19942,-0.0003700654
75.29942,-0.0003694777
75.39942,-0.0003689146
75.49942,-0.0003683797
75.59942,-0.0003678259
75.69942,-0.0003672543
75.79942,-0.0003667015
75.89941,-0.0003662024
75.99941,-0.0003656656
76.09941,-0.0003651185
76.19941,-0.0003645421
76.29941,-0.0003641165
76.39941,-0.0003635241
76.4994,-0.000362944
76.5994,-0.0003624374
76.6994,-0.0003618864
76.7994,-0.0003613252
76.8994,-0.00036081
76.9994,-0.0003602921
77.0994,-0.0003597591
77.19939,-0.0003592279
77.29939,-0.0003586987
77.39939,-0.00035816
77.49939,-0.0003576684
77.59939,-0.0003571194
77.69939,-0.000356593
77.79939,-0.0003560741
77.89938,-0.0003555495
77.99938,-0.0003550316
78.09938,-0.000354572
78.19938,-0.0003539853
78.29938,-0.0003534655
78.39938,-0.0003529927
78.49937,-0.0003524663
78.59937,-0.0003519069
78.69937,-0.0003514162
78.79937,-0.0003508597
78.89937,-0.0003504275
78.99937,-0.000349982
79.09937,-0.0003495206
79.19936,-0.0003489056
79.29936,-0.0003483726
79.39936,-0.0003478951
79.49936,-0.0003474007
79.59936,-0.0003469657
79.69936,-0.0003465305
79.79935,-0.0003459552
79.89935,-0.0003454372
79.99935,-0.0003450586
80.09935,-0.0003445492
80.19935,-0.0003440039
80.29935,-0.0003435038
80.39935,-0.0003429643
80.49934,-0.0003424388
80.59934,-0.0003419509
80.69934,-0.0003414669
80.79934,-0.0003409922
80.89934,-0.0003406636
80.99934,-0.0003402304
81.09933,-0.0003395956
81.19933,-0.0003390881
81.29933,-0.0003387085
81.39933,-0.0003380945
81.49933,-0.0003376199
81.59933,-0.0003371057
81.69933,-0.0003366782
81.79932,-0.0003361574
81.89932,-0.0003356376
81.99932,-0.0003352326
82.09932,-0.0003348277
82.19932,-0.0003343097
82.29932,-0.000333755
82.39931,-0.0003332955
82.49931,-0.0003328868
82.59931,-0.0003323556
82.69931,-0.0003318245
82.79931,-0.0003314063
82.89931,-0.0003308978
82.99931,-0.0003304166
83.0993,-0.000329941
83.1993,-0.0003295502
83.2993,-0.0003291038
83.3993,-0.0003285774
83.4993,-0.0003280604
83.5993,-0.0003275971
83.6993,-0.0003271234
83.79929,-0.0003266148
83.89929,-0.0003261383
83.99929,-0.0003256656
84.09929,-0.0003252154
84.19929,-0.000324769
84.29929,-0.0003242803
84.39928,-0.0003237491
84.49928,-0.0003232999
84.59928,-0.000322863
84.69928,-0.0003223968
84.79928,-0.0003219137
84.89928,-0.0003214532
84.99928,-0.0003209946
85.09927,-0.0003204719
85.19927,-0.0003200821
85.29927,-0.0003196027
85.39927,-0.0003191262
85.49927,-0.0003186779
85.59927,-0.0003182777
85.69926,-0.000317804
85.79926,-0.0003173369
85.89926,-0.0003168829
85.99926,-0.0003164177
86.09926,-0.0003159658
86.19926,-0.0003155561
86.29926,-0.0003150692
86.39925,-0.0003146463
86.49925,-0.0003141925
86.59925,-0.0003136971
86.69925,-0.0003132564
86.79925,-0.0003128119
86.89925,-0.0003123646
86.99924,-0.0003119558
87.09924,-0.0003115
87.19924,-0.0003110678
87.29924,-0.0003106544
87.39924,-0.0003101788
87.49924,-0.0003097211
87.59924,-0.0003092879
87.69923,-0.000308882
87.79923,-0.0003084573
87.89923,-0.0003080505
87.99923,-0.0003076107
88.09923,-0.0003071511
88.19923,-0.0003067264
88.29922,-0.0003063356
88.39922,-0.0003059071
88.49922,-0.0003054466
88.59922,-0.0003050247
88.69922,-0.0003046066
88.79922,-0.0003041734
