EXPID. 0621
[电化学]: i-t : @ 0(V) X 600(sec)
起始电位 (V),0
静置时间 (秒),0
运行时间 (秒),600
记录间隔,0.1
电解液 信息:
HNO3,0.4
0.1,-0.01005814
0.2,-0.01005814
0.3,-0.01005814
0.4,-0.01005814
0.5,-0.01005814
0.6,-0.01005814
0.7,-0.01005814
0.8000001,-0.01005814
0.9000001,-0.01005814
1,-0.01005814
1.1,-0.01005814
1.2,-0.01005814
1.3,-0.01004071
1.4,0.0005208577
1.5,0.001421888
1.6,-0.002552655
1.7,-0.00529461
1.8,-0.00604296
1.9,-0.006163174
2,-0.006144374
2.1,-0.006072802
2.2,-0.005956966
2.3,-0.005802687
2.4,-0.005616494
2.5,-0.005440537
2.6,-0.005276502
2.7,-0.005122553
2.799999,-0.004982179
2.899999,-0.004851384
2.999999,-0.004737109
3.099999,-0.004625668
3.199999,-0.004519557
3.299999,-0.004430782
3.399999,-0.004349253
3.499999,-0.00426007
3.599999,-0.004184392
3.699999,-0.004113025
3.799999,-0.004041749
3.899998,-0.003973638
3.999998,-0.003911182
4.099998,-0.003844251
4.199998,-0.003785398
4.299998,-0.003719937
4.399998,-0.003658288
4.499998,-0.00359611
4.599998,-0.003532948
4.699998,-0.0034729
4.799998,-0.003412123
4.899998,-0.003349585
4.999998,-0.003288055
5.099998,-0.003220572
5.199997,-0.003160307
5.299997,-0.003093397
5.399997,-0.003026627
5.499997,-0.002961482
5.599997,-0.002894805
5.699997,-0.002825951
5.799997,-0.002763342
5.899997,-0.002709767
5.999997,-0.002656693
6.099997,-0.002609132
6.199996,-0.002565437
6.299996,-0.00252478
6.399996,-0.002486804
6.499996,-0.002451011
6.599996,-0.002417281
6.699996,-0.002385468
6.799996,-0.002355611
6.899996,-0.0023275
6.999996,-0.002300611
7.099996,-0.002274681
7.199996,-0.002251033
7.299995,-0.002227006
7.399995,-0.00220525
7.499995,-0.002184058
7.599995,-0.002162438
7.699995,-0.002142995
7.799995,-0.002124763
7.899995,-0.002105557
7.999995,-0.002088821
8.099995,-0.002072826
8.199995,-0.002055838
8.299995,-0.002040266
8.399996,-0.002026504
8.499996,-0.002010238
8.599997,-0.001996274
8.699997,-0.001983106
8.799997,-0.001968652
8.899998,-0.001955145
8.999998,-0.001943099
9.099998,-0.001930591
9.199999,-0.001917641
9.299999,-0.001906219
9.4,-0.001894192
9.5,-0.001882059
9.6,-0.001871013
9.700001,-0.001860194
9.800001,-0.001849403
9.900002,-0.00183857
10,-0.001828593
10.1,-0.001818142
10.2,-0.001808363
10.3,-0.001798684
10.4,-0.001788841
10.5,-0.001779623
10.6,-0.001770542
10.7,-0.001761404
10.8,-0.001753042
10.90001,-0.001744515
11.00001,-0.001736005
11.10001,-0.001728118
11.20001,-0.001719845
11.30001,-0.001711998
11.40001,-0.001703983
11.50001,-0.001696499
11.60001,-0.001689123
11.70001,-0.001681582
11.80001,-0.00167454
11.90001,-0.001667388
12.00001,-0.001660059
12.10001,-0.001653272
12.20001,-0.001646751
12.30001,-0.001639631
12.40001,-0.001633286
12.50001,-0.00162715
12.60001,-0.001620131
12.70001,-0.001614043
12.80001,-0.00160804
12.90001,-0.001601746
13.00001,-0.00159595
13.10001,-0.001590056
13.20001,-0.001584173
13.30001,-0.001578479
13.40001,-0.001572766
13.50002,-0.001567212
13.60002,-0.001561624
13.70002,-0.001556413
13.80002,-0.001551005
13.90002,-0.001545797
14.00002,-0.001540459
14.10002,-0.001535683
14.20002,-0.001530459
14.30002,-0.00152545
14.40002,-0.001520656
14.50002,-0.001515654
14.60002,-0.00151087
14.70002,-0.001506048
14.80002,-0.001501135
14.90002,-0.001496451
15.00002,-0.001491974
15.10002,-0.001487221
15.20002,-0.001482782
15.30002,-0.001478271
15.40002,-0.001473765
15.50002,-0.00146949
15.60002,-0.001465076
15.70002,-0.001460877
15.80002,-0.001456635
15.90002,-0.001452339
16.00002,-0.001448222
16.10003,-0.001444267
16.20003,-0.001440169
16.30003,-0.001436182
16.40003,-0.001432227
16.50003,-0.001428124
16.60003,-0.001424349
16.70003,-0.001420453
16.80003,-0.001416466
16.90003,-0.001412901
17.00003,-0.00140899
17.10003,-0.001405312
17.20003,-0.001401665
17.30003,-0.001397925
17.40003,-0.001394397
17.50003,-0.001391014
17.60003,-0.00138715
17.70003,-0.001383934
17.80003,-0.001380662
17.90003,-0.001376888
18.00003,-0.00137367
18.10003,-0.001370386
18.20003,-0.00136681
18.30003,-0.001363633
18.40003,-0.001360324
18.50003,-0.001357016
18.60003,-0.001353856
18.70004,-0.001350692
18.80004,-0.001347478
18.90004,-0.001344628
19.00004,-0.001341441
19.10004,-0.001338165
19.20004,-0.001335317
19.30004,-0.001332349
19.40004,-0.001329212
19.50004,-0.001326232
19.60004,-0.001323472
19.70004,-0.001320336
19.80004,-0.001317414
19.90004,-0.001314675
20.00004,-0.001311603
20.10004,-0.001308932
20.20004,-0.001306356
20.30004,-0.001303312
20.40004,-0.001300657
20.50004,-0.001297986
20.60004,-0.001295101
20.70004,-0.00129245
20.80004,-0.001289944
20.90004,-0.001287054
21.00004,-0.001284434
21.10004,-0.001281967
21.20004,-0.001279267
21.30005,-0.001276636
21.40005,-0.001274301
21.50005,-0.001271701
21.60005,-0.001269009
21.70005,-0.00126669
21.80005,-0.001264114
21.90005,-0.001261526
22.00005,-0.001259045
22.10005,-0.001256767
22.20005,-0.001254214
22.30005,-0.001251668
22.40005,-0.001249362
22.50005,-0.001246977
22.60005,-0.001244525
22.70005,-0.001242382
22.80005,-0.001239926
22.90005,-0.001237543
23.00005,-0.001235408
23.10005,-0.001232947
23.20005,-0.001230633
23.30005,-0.001228395
23.40005,-0.001226153
23.50005,-0.001223809
23.60005,-0.001221731
23.70005,-0.001219392
23.80005,-0.001217125
23.90005,-0.001214995
24.00006,-0.001212744
24.10006,-0.001210645
24.20006,-0.001208432
24.30006,-0.001206287
24.40006,-0.001204179
24.50006,-0.001202063
24.60006,-0.001200012
24.70006,-0.00119791
24.80006,-0.001195807
24.90006,-0.001193764
25.00006,-0.001191857
25.10006,-0.001189673
25.20006,-0.00118761
25.30006,-0.001185699
25.40006,-0.001183623
25.50006,-0.001181563
25.60006,-0.001179648
25.70006,-0.001177507
25.80006,-0.001175624
25.90006,-0.001173729
26.00006,-0.001171647
26.10006,-0.001169762
26.20006,-0.001167858
26.30006,-0.00116596
26.40006,-0.001164056
26.50006,-0.001162254
26.60007,-0.001160389
26.70007,-0.001158551
26.80007,-0.001156589
26.90007,-0.001154804
27.00007,-0.001152979
27.10007,-0.001151113
27.20007,-0.001149385
27.30007,-0.001147794
27.40007,-0.001145866
27.50007,-0.001143985
27.60007,-0.001142206
27.70007,-0.00114042
27.80007,-0.001138599
27.90007,-0.001136912
28.00007,-0.001135156
28.10007,-0.001133362
28.20007,-0.001131552
28.30007,-0.001129915
28.40007,-0.001128191
28.50007,-0.001126412
28.60007,-0.001124796
28.70007,-0.001123113
28.80007,-0.001121319
28.90007,-0.001119758
29.00007,-0.001118027
29.10007,-0.001116357
29.20008,-0.001114709
29.30008,-0.001112974
29.40008,-0.001111421
29.50008,-0.001109764
29.60008,-0.001108131
29.70008,-0.001106516
29.80008,-0.001104848
29.90008,-0.001103301
30.00008,-0.001101723
30.10008,-0.001100098
30.20008,-0.001098538
30.30008,-0.001097029
30.40008,-0.001095361
30.50008,-0.001093855
30.60008,-0.001092274
30.70008,-0.001090723
30.80008,-0.001089338
30.90008,-0.001087856
31.00008,-0.001086202
31.10008,-0.001084845
31.20008,-0.001083305
31.30008,-0.001081788
31.40008,-0.001080446
31.50008,-0.001079066
31.60008,-0.001077641
31.70008,-0.001076297
31.80009,-0.001074772
31.90009,-0.001073464
32.00008,-0.00107199
32.10008,-0.001070525
32.20008,-0.001069242
32.30008,-0.001067907
32.40008,-0.001066335
32.50008,-0.001064984
32.60007,-0.001063569
32.70007,-0.001062103
32.80007,-0.001060694
32.90007,-0.001059245
33.00007,-0.001057863
33.10007,-0.00105651
33.20007,-0.001054993
33.30006,-0.00105371
33.40006,-0.001052347
33.50006,-0.001050901
33.60006,-0.001049541
33.70006,-0.001048383
33.80006,-0.001047078
33.90005,-0.001045719
34.00005,-0.001044371
34.10005,-0.001043153
34.20005,-0.001041848
34.30005,-0.001040528
34.40005,-0.001039062
34.50005,-0.001037871
34.60004,-0.001036524
34.70004,-0.001035141
34.80004,-0.001033872
34.90004,-0.001032523
35.00004,-0.00103133
35.10004,-0.001029938
35.20004,-0.001028622
35.30003,-0.001027354
35.40003,-0.001026107
35.50003,-0.001024809
35.60003,-0.001023599
35.70003,-0.001022265
35.80003,-0.001020951
35.90002,-0.001019733
36.00002,-0.001018488
36.10002,-0.001017313
36.20002,-0.001016011
36.30002,-0.001014722
36.40002,-0.001013424
36.50002,-0.001012206
36.60001,-0.001010941
36.70001,-0.001009687
36.80001,-0.001008489
36.90001,-0.001007247
37.00001,-0.001005994
37.10001,-0.001004797
37.2,-0.00100351
37.3,-0.001002324
37.4,-0.001001061
37.5,-0.0009999527
37.6,-0.0009986711
37.7,-0.0009975919
37.8,-0.0009963799
37.89999,-0.0009951141
37.99999,-0.0009940199
38.09999,-0.0009928352
38.19999,-0.0009916024
38.29999,-0.0009904667
38.39999,-0.000989265
38.49998,-0.0009880832
38.59998,-0.0009869464
38.69998,-0.0009857552
38.79998,-0.000984546
38.89998,-0.0009835185
38.99998,-0.0009822623
39.09998,-0.0009810833
39.19997,-0.0009800596
39.29997,-0.0009788636
39.39997,-0.0009776837
39.49997,-0.0009765639
39.59997,-0.0009755139
39.69997,-0.0009743141
39.79996,-0.0009731774
39.89996,-0.0009721123
39.99996,-0.0009710426
40.09996,-0.0009697618
40.19996,-0.0009688484
40.29996,-0.000967739
40.39996,-0.0009665486
40.49995,-0.0009655146
40.59995,-0.0009645653
40.69995,-0.0009633015
40.79995,-0.000962293
40.89995,-0.0009613191
40.99995,-0.0009602098
41.09995,-0.0009592238
41.19994,-0.0009582124
41.29994,-0.000957055
41.39994,-0.0009561105
41.49994,-0.000955114
41.59994,-0.0009541046
41.69994,-0.0009531553
41.79993,-0.0009521579
41.89993,-0.0009511212
41.99993,-0.0009501445
42.09993,-0.0009491313
42.19993,-0.0009480304
42.29993,-0.0009470783
42.39993,-0.0009459548
42.49992,-0.0009448521
42.59992,-0.0009438049
42.69992,-0.0009427643
42.79992,-0.0009417179
42.89992,-0.0009406293
42.99992,-0.0009395539
43.09991,-0.0009385199
43.19991,-0.0009374736
43.29991,-0.0009364103
43.39991,-0.0009353801
43.49991,-0.0009343065
43.59991,-0.0009334109
43.69991,-0.0009325681
43.7999,-0.0009313636
43.8999,-0.0009303155
43.9999,-0.0009294472
44.0999,-0.0009283755
44.1999,-0.0009273764
44.2999,-0.0009264667
44.39989,-0.0009253394
44.49989,-0.0009243477
44.59989,-0.0009234531
44.69989,-0.000922357
44.79989,-0.0009213634
44.89989,-0.0009204358
44.99989,-0.0009193961
45.09988,-0.0009184647
45.19988,-0.0009175569
45.29988,-0.0009164748
45.39988,-0.0009154465
45.49988,-0.0009144784
45.59988,-0.0009135932
45.69987,-0.0009125987
45.79987,-0.0009116579
45.89987,-0.0009107887
45.99987,-0.0009098215
46.09987,-0.0009088393
46.19987,-0.0009079211
46.29987,-0.0009069389
46.39986,-0.0009060584
46.49986,-0.0009050808
46.59986,-0.0009040835
46.69986,-0.0009032313
46.79986,-0.0009023122
46.89986,-0.0009013055
46.99986,-0.0009004588
47.09985,-0.0008996047
47.19985,-0.0008985791
47.29985,-0.0008977599
47.39985,-0.000896756
47.49985,-0.0008958086
47.59985,-0.0008949045
47.69984,-0.0008940654
47.79984,-0.0008931595
47.89984,-0.0008922366
47.99984,-0.0008913128
48.09984,-0.0008904831
48.19984,-0.0008894858
48.29984,-0.0008886288
48.39983,-0.000887754
48.49983,-0.0008868141
48.59983,-0.0008859016
48.69983,-0.0008850059
48.79983,-0.0008840586
48.89983,-0.000883195
48.99982,-0.000882306
49.09982,-0.0008813775
49.19982,-0.0008804753
49.29982,-0.000879591
49.39982,-0.0008787293
49.49982,-0.00087783
49.59982,-0.0008768553
49.69981,-0.0008761057
49.79981,-0.0008752562
49.89981,-0.0008742495
49.99981,-0.0008733379
50.09981,-0.0008725855
50.19981,-0.0008716296
50.2998,-0.0008708376
50.3998,-0.0008700032
50.4998,-0.000869069
50.5998,-0.0008682799
50.6998,-0.0008673542
50.7998,-0.0008665763
50.8998,-0.0008657259
50.99979,-0.0008648859
51.09979,-0.0008641324
51.19979,-0.0008633499
51.29979,-0.0008624534
51.39979,-0.000861716
51.49979,-0.0008609052
51.59978,-0.0008601029
51.69978,-0.0008593429
51.79978,-0.0008584868
51.89978,-0.0008576402
51.99978,-0.0008568642
52.09978,-0.0008560882
52.19978,-0.0008551587
52.29977,-0.0008543244
52.39977,-0.00085357
52.49977,-0.0008527414
52.59977,-0.0008519258
52.69977,-0.0008511404
52.79977,-0.0008504143
52.89977,-0.000849515
52.99976,-0.0008487945
53.09976,-0.0008480044
53.19976,-0.0008471484
53.29976,-0.000846265
53.39976,-0.00084557
53.49976,-0.0008446433
53.59975,-0.0008437515
53.69975,-0.000843049
53.79975,-0.0008421355
53.89975,-0.0008412061
53.99975,-0.0008404809
54.09975,-0.0008395787
54.19975,-0.0008386925
54.29974,-0.0008379401
54.39974,-0.0008370333
54.49974,-0.000836278
54.59974,-0.0008354379
54.69974,-0.0008346035
54.79974,-0.0008337522
54.89973,-0.0008329809
54.99973,-0.0008322126
55.09973,-0.0008313216
55.19973,-0.0008305475
55.29973,-0.0008297396
55.39973,-0.000828957
55.49973,-0.0008281593
55.59972,-0.0008273211
55.69972,-0.0008263823
55.79972,-0.0008256685
55.89972,-0.0008249216
55.99972,-0.0008241052
56.09972,-0.000823234
56.19971,-0.0008225862
56.29971,-0.0008217047
56.39971,-0.0008209079
56.49971,-0.0008201687
56.59971,-0.0008193626
56.69971,-0.0008186092
56.79971,-0.0008178229
56.8997,-0.0008170063
56.9997,-0.0008162567
57.0997,-0.0008155419
57.1997,-0.000814846
57.2997,-0.0008141115
57.3997,-0.000813408
57.49969,-0.0008127054
57.59969,-0.0008120349
57.69969,-0.0008112703
57.79969,-0.0008105875
57.89969,-0.0008098935
57.99969,-0.000809174
58.09969,-0.0008083867
58.19968,-0.0008077256
58.29968,-0.0008069374
58.39968,-0.0008062499
58.49968,-0.0008055323
58.59968,-0.0008048335
58.69968,-0.0008041235
58.79967,-0.0008033079
58.89967,-0.0008026224
58.99967,-0.0008018191
59.09967,-0.0008009772
59.19967,-0.0008002511
59.29967,-0.0007994713
59.39967,-0.0007986078
59.49966,-0.000797859
59.59966,-0.0007970501
59.69966,-0.0007962563
59.79966,-0.0007955396
59.89966,-0.0007946525
59.99966,-0.0007938577
60.09966,-0.0007931778
60.19965,-0.0007923688
60.29965,-0.0007915749
60.39965,-0.000790943
60.49965,-0.0007901199
60.59965,-0.0007893854
60.69965,-0.0007886527
60.79964,-0.0007880368
60.89964,-0.000787308
60.99964,-0.0007865715
61.09964,-0.0007859283
61.19964,-0.0007852521
61.29964,-0.0007844893
61.39964,-0.0007838989
61.49963,-0.0007831794
61.59963,-0.0007823676
61.69963,-0.0007817526
61.79963,-0.0007812215
61.89963,-0.0007805143
61.99963,-0.0007799059
62.09962,-0.0007793672
62.19962,-0.0007786364
62.29962,-0.0007779311
62.39962,-0.0007772511
62.49962,-0.0007765157
62.59962,-0.0007757896
62.69962,-0.0007750871
62.79961,-0.0007743036
62.89961,-0.0007735059
62.99961,-0.0007727337
63.09961,-0.00077197
63.19961,-0.0007712561
63.29961,-0.0007704538
63.3996,-0.0007696918
63.4996,-0.0007689546
63.5996,-0.0007681626
63.6996,-0.0007674148
63.7996,-0.0007667094
63.8996,-0.0007659636
63.9996,-0.0007651725
64.09959,-0.0007644964
64.19959,-0.0007637392
64.29959,-0.0007629896
64.39959,-0.000762303
64.49959,-0.0007616062
64.59959,-0.0007608255
64.69958,-0.0007601833
64.79958,-0.0007594082
64.89958,-0.0007586661
64.99958,-0.0007580107
65.09958,-0.0007572894
65.19958,-0.0007565501
65.29958,-0.0007558786
65.39957,-0.0007553211
65.49957,-0.000754627
65.59957,-0.0007538972
65.69957,-0.0007531994
65.79957,-0.000752495
65.89957,-0.0007517905
65.99957,-0.000751169
66.09956,-0.0007504128
66.19956,-0.0007496726
66.29956,-0.0007490002
66.39956,-0.0007483513
66.49956,-0.0007476074
66.59956,-0.0007469199
66.69955,-0.0007463059
66.79955,-0.0007455685
66.89955,-0.0007449046
66.99955,-0.0007442077
67.09955,-0.0007435118
67.19955,-0.0007428884
67.29955,-0.0007421792
67.39954,-0.0007414701
67.49954,-0.000740858
67.59954,-0.0007401705
67.69954,-0.0007394783
67.79954,-0.0007388257
67.89954,-0.0007381119
67.99953,-0.0007374432
68.09953,-0.000736848
68.19953,-0.0007361729
68.29953,-0.0007355372
68.39953,-0.0007348394
68.49953,-0.0007342508
68.59953,-0.0007335736
68.69952,-0.0007328844
68.79952,-0.0007322947
68.89952,-0.0007316225
68.99952,-0.000730983
69.09952,-0.0007303445
69.19952,-0.0007296937
69.29951,-0.0007290393
69.39951,-0.0007283734
69.49951,-0.0007277105
69.59951,-0.0007270814
69.69951,-0.0007264457
69.79951,-0.0007257837
69.89951,-0.0007250971
69.9995,-0.0007244511
70.0995,-0.0007238729
70.1995,-0.0007231855
70.2995,-0.0007225309
70.3995,-0.0007218953
70.4995,-0.0007212577
70.59949,-0.0007206296
70.69949,-0.0007200128
70.79949,-0.0007192641
70.89949,-0.0007186661
70.99949,-0.0007180728
71.09949,-0.0007173834
71.19949,-0.0007167082
71.29948,-0.0007160688
71.39948,-0.0007153823
71.49948,-0.0007148182
71.59948,-0.0007142004
71.69948,-0.000713512
71.79948,-0.0007130025
71.89948,-0.0007123518
71.99947,-0.0007116313
72.09947,-0.0007110023
72.19947,-0.0007104448
72.29947,-0.0007097686
72.39947,-0.0007091423
72.49947,-0.0007085556
72.59946,-0.0007078983
72.69946,-0.0007072908
72.79946,-0.0007066797
72.89946,-0.0007060507
72.99946,-0.0007054385
73.09946,-0.0007048057
73.19946,-0.0007041926
73.29945,-0.0007035409
73.39945,-0.0007029477
73.49945,-0.0007023619
73.59945,-0.0007017347
73.69945,-0.0007011056
73.79945,-0.000700486
73.89944,-0.0006998898
73.99944,-0.0006993173
74.09944,-0.0006986891
74.19944,-0.0006980186
74.29944,-0.0006974715
74.39944,-0.0006969498
74.49944,-0.0006962887
74.59943,-0.0006957161
74.69943,-0.0006951049
74.79943,-0.0006945031
74.89943,-0.0006939278
74.99943,-0.0006934126
75.09943,-0.0006927138
75.19942,-0.0006921149
75.29942,-0.0006915857
75.39942,-0.0006909425
75.49942,-0.0006903209
75.59942,-0.0006897605
75.69942,-0.0006891862
75.79942,-0.0006886135
75.89941,-0.0006880541
75.99941,-0.0006873884
76.09941,-0.0006868751
76.19941,-0.000686264
76.29941,-0.000685746
76.39941,-0.0006851291
76.4994,-0.000684517
76.5994,-0.0006840103
76.6994,-0.0006833973
76.7994,-0.0006828586
76.8994,-0.000682287
76.9994,-0.0006816456
77.0994,-0.0006811277
77.19939,-0.0006805994
77.29939,-0.0006799327
77.39939,-0.0006793272
77.49939,-0.000678796
77.59939,-0.0006782102
77.69939,-0.0006776612
77.79939,-0.0006770952
77.89938,-0.0006764322
77.99938,-0.0006758606
78.09938,-0.0006753596
78.19938,-0.0006747588
78.29938,-0.0006741787
78.39938,-0.0006736211
78.49937,-0.0006730203
78.59937,-0.0006724581
78.69937,-0.0006718724
78.79937,-0.000671281
78.89937,-0.0006706773
78.99937,-0.0006701358
79.09937,-0.0006695981
79.19936,-0.0006690077
79.29936,-0.0006684577
79.39936,-0.0006678013
79.49936,-0.000667322
79.59936,-0.0006667823
79.69936,-0.0006662342
79.79935,-0.0006655712
79.89935,-0.0006650289
79.99935,-0.0006645109
80.09935,-0.0006639044
80.19935,-0.0006633695
80.29935,-0.000662795
80.39935,-0.0006621829
80.49934,-0.0006616641
80.59934,-0.0006611366
80.69934,-0.0006605095
80.79934,-0.0006599341
80.89934,-0.0006594246
80.99934,-0.000658837
81.09933,-0.0006583039
81.19933,-0.0006577812
81.29933,-0.0006571437
81.39933,-0.0006566521
81.49933,-0.0006560824
81.59933,-0.0006555098
81.69933,-0.0006549702
81.79932,-0.0006544108
81.89932,-0.0006539418
81.99932,-0.0006533494
82.09932,-0.0006528051
82.19932,-0.0006522702
82.29932,-0.0006517316
82.39931,-0.0006511571
82.49931,-0.0006506769
82.59931,-0.0006501372
82.69931,-0.0006495892
82.79931,-0.0006490062
82.89931,-0.0006484714
82.99931,-0.0006479496
83.0993,-0.0006474429
83.1993,-0.0006468788
83.2993,-0.0006462969
83.3993,-0.0006457723
83.4993,-0.0006452647
83.5993,-0.0006447929
83.6993,-0.0006442053
83.79929,-0.0006436384
83.89929,-0.0006431637
83.99929,-0.0006426928
84.09929,-0.000642075
84.19929,-0.0006416108
84.29929,-0.0006410815
84.39928,-0.0006405495
84.49928,-0.0006400701
84.59928,-0.0006396021
84.69928,-0.0006390154
84.79928,-0.0006384795
84.89928,-0.000637955
84.99928,-0.0006374474
85.09927,-0.0006369464
85.19927,-0.0006363983
85.29927,-0.0006358832
85.39927,-0.0006353568
85.49927,-0.0006347701
85.59927,-0.0006342963
85.69926,-0.000633736
85.79926,-0.0006332379
85.89926,-0.000632685
85.99926,-0.0006321709
86.09926,-0.0006315795
86.19926,-0.0006310935
86.29926,-0.0006305464
86.39925,-0.0006299804
86.49925,-0.0006295096
86.59925,-0.0006289389
86.69925,-0.000628404
86.79925,-0.0006279048
86.89925,-0.0006273342
86.99924,-0.0006268153
87.09924,-0.0006262738
87.19924,-0.0006258095
87.29924,-0.0006252454
87.39924,-0.0006247547
87.49924,-0.0006242001
87.59924,-0.0006236774
87.69923,-0.00062315
87.79923,-0.000622666
87.89923,-0.000622083
87.99923,-0.0006215764
88.09923,-0.0006211036
88.19923,-0.0006205641
88.29922,-0.0006200282
88.39922,-0.0006194914
88.49922,-0.0006189216
88.59922,-0.0006185412
88.69922,-0.0006180439
88.79922,-0.0006174939
88.89922,-0.0006170241
88.99921,-0.0006165522
89.09921,-0.0006160042
89.19921,-0.0006155898
89.29921,-0.0006150191
89.39921,-0.0006145275
89.49921,-0.0006140764
89.59921,-0.0006135783
89.6992,-0.0006130735
