EXPID. 1231
[电化学]: i-t : @ 0(V) X 600(sec)
起始电位 (V),0
静置时间 (秒),0
运行时间 (秒),600
记录间隔,0.1
电解液 信息:
HNO3,0.4
0.1,-0.01005814
0.2,-0.01005814
0.3,-0.01005814
0.4,-0.01005814
0.5,-0.01005814
0.6,-0.01005814
0.7,-0.01005814
0.8000001,-0.008727273
0.9000001,-0.007081324
1,-0.00553837
1.1,-0.005678259
1.2,-0.006140337
1.3,-0.00622956
1.4,-0.006111159
1.5,-0.005942405
1.6,-0.005772968
1.7,-0.005610158
1.8,-0.00546558
1.9,-0.005333638
2,-0.005206982
2.1,-0.005097615
2.2,-0.004991887
2.3,-0.004886669
2.4,-0.004794008
2.5,-0.004703008
2.6,-0.004608758
2.7,-0.004525742
2.799999,-0.004441936
2.899999,-0.004363825
2.999999,-0.004286179
3.099999,-0.004219506
3.199999,-0.004147951
3.299999,-0.004083446
3.399999,-0.004022135
3.499999,-0.003960934
3.599999,-0.003904594
3.699999,-0.003848696
3.799999,-0.003794367
3.899998,-0.003743614
3.999998,-0.003692555
4.099998,-0.003645757
4.199998,-0.003600225
4.299998,-0.003554506
4.399998,-0.003511543
4.499998,-0.003470937
4.599998,-0.003428877
4.699998,-0.00339075
4.799998,-0.003354118
4.899998,-0.003316496
4.999998,-0.003281272
5.099998,-0.003247959
5.199997,-0.003214466
5.299997,-0.003183357
5.399997,-0.003152827
5.499997,-0.003121134
5.599997,-0.003092063
5.699997,-0.003063882
5.799997,-0.003035673
5.899997,-0.00300851
5.999997,-0.002982274
6.099997,-0.002956033
6.199996,-0.002930625
6.299996,-0.002905897
6.399996,-0.002881977
6.499996,-0.00285833
6.599996,-0.002835641
6.699996,-0.002812115
6.799996,-0.002790773
6.899996,-0.002768722
6.999996,-0.002747107
7.099996,-0.002726502
7.199996,-0.002705857
7.299995,-0.002684983
7.399995,-0.002665258
7.499995,-0.002645648
7.599995,-0.002626266
7.699995,-0.002607279
7.799995,-0.002588646
7.899995,-0.002569608
7.999995,-0.002552275
8.099995,-0.002533983
8.199995,-0.00251604
8.299995,-0.002499129
8.399996,-0.002481787
8.499996,-0.002464779
8.599997,-0.002448468
8.699997,-0.002431966
8.799997,-0.002415526
8.899998,-0.002399703
8.999998,-0.002384057
9.099998,-0.002367694
9.199999,-0.002353116
9.299999,-0.002337451
9.4,-0.002322494
9.5,-0.002307792
9.6,-0.002293186
9.700001,-0.00227877
9.800001,-0.002264275
9.900002,-0.002250545
10,-0.002236417
10.1,-0.002222385
10.2,-0.002209052
10.3,-0.00219552
10.4,-0.002181933
10.5,-0.002168895
10.6,-0.002155893
10.7,-0.002142868
10.8,-0.002129924
10.90001,-0.002117357
11.00001,-0.00210479
11.10001,-0.002092267
11.20001,-0.002080307
11.30001,-0.002067911
11.40001,-0.002055974
11.50001,-0.002044062
11.60001,-0.002032222
11.70001,-0.002020561
11.80001,-0.002009031
11.90001,-0.001997632
12.00001,-0.00198645
12.10001,-0.001975661
12.20001,-0.001964028
12.30001,-0.001953581
12.40001,-0.001942765
12.50001,-0.001931518
12.60001,-0.001921048
12.70001,-0.001910567
12.80001,-0.001899987
12.90001,-0.001889344
13.00001,-0.001879155
13.10001,-0.001868748
13.20001,-0.001858771
13.30001,-0.001848789
13.40001,-0.001838696
13.50002,-0.00182891
13.60002,-0.001819102
13.70002,-0.001809259
13.80002,-0.001799874
13.90002,-0.001790277
14.00002,-0.001780831
14.10002,-0.001771497
14.20002,-0.001762373
14.30002,-0.00175294
14.40002,-0.001743952
14.50002,-0.001734932
14.60002,-0.001725712
14.70002,-0.001717053
14.80002,-0.001708359
14.90002,-0.001699244
15.00002,-0.001690789
15.10002,-0.001682251
15.20002,-0.001673589
15.30002,-0.00166527
15.40002,-0.001656716
15.50002,-0.001648184
15.60002,-0.001640146
15.70002,-0.001632235
15.80002,-0.001623981
15.90002,-0.001615917
16.00002,-0.00160778
16.10003,-0.001600065
16.20003,-0.001592421
16.30003,-0.001584476
16.40003,-0.00157658
16.50003,-0.001569042
16.60003,-0.001561414
16.70003,-0.001553813
16.80003,-0.001546473
16.90003,-0.001539014
17.00003,-0.001531427
17.10003,-0.001524225
17.20003,-0.001517114
17.30003,-0.001509698
17.40003,-0.0015025
17.50003,-0.001495481
17.60003,-0.001488255
17.70003,-0.001481367
17.80003,-0.001474455
17.90003,-0.001467388
18.00003,-0.00146064
18.10003,-0.001453957
18.20003,-0.001447033
18.30003,-0.001440531
18.40003,-0.001434052
18.50003,-0.001427061
18.60003,-0.001420723
18.70004,-0.001414301
18.80004,-0.001407665
18.90004,-0.001401502
19.00004,-0.001394939
19.10004,-0.001388493
19.20004,-0.001382537
19.30004,-0.001376297
19.40004,-0.001370072
19.50004,-0.001363996
19.60004,-0.001357918
19.70004,-0.001351709
19.80004,-0.00134579
19.90004,-0.001339829
20.00004,-0.001333826
20.10004,-0.001328088
20.20004,-0.001322241
20.30004,-0.001316345
20.40004,-0.001310683
20.50004,-0.001304895
20.60004,-0.001299252
20.70004,-0.001293771
20.80004,-0.001288102
20.90004,-0.001282571
21.00004,-0.001277197
21.10004,-0.001271621
21.20004,-0.001266096
21.30005,-0.001260777
21.40005,-0.001255366
21.50005,-0.001250083
21.60005,-0.001244835
21.70005,-0.001239639
21.80005,-0.001234454
21.90005,-0.001229398
22.00005,-0.001224378
22.10005,-0.001219153
22.20005,-0.001214184
22.30005,-0.00120912
22.40005,-0.001204178
22.50005,-0.001199215
22.60005,-0.00119435
22.70005,-0.001189456
22.80005,-0.001184493
22.90005,-0.001179693
23.00005,-0.001174955
23.10005,-0.001170039
23.20005,-0.001165401
23.30005,-0.001160734
23.40005,-0.001155979
23.50005,-0.001151291
23.60005,-0.001146715
23.70005,-0.001142135
23.80005,-0.001137496
23.90005,-0.001133028
24.00006,-0.001128518
24.10006,-0.001124001
24.20006,-0.001119687
24.30006,-0.001115201
24.40006,-0.001110826
24.50006,-0.001106435
24.60006,-0.001102099
24.70006,-0.001097721
24.80006,-0.001093484
24.90006,-0.001089263
25.00006,-0.001085031
25.10006,-0.001080986
25.20006,-0.001076659
25.30006,-0.00107267
25.40006,-0.001068724
25.50006,-0.001064484
25.60006,-0.001060539
25.70006,-0.001056583
25.80006,-0.001052494
25.90006,-0.001048617
26.00006,-0.001044814
26.10006,-0.001040751
26.20006,-0.001036845
26.30006,-0.001033091
26.40006,-0.00102902
26.50006,-0.001025223
26.60007,-0.001021474
26.70007,-0.001017647
26.80007,-0.001013889
26.90007,-0.001010276
27.00007,-0.001006547
27.10007,-0.001002864
27.20007,-0.0009992766
27.30007,-0.0009955539
27.40007,-0.0009919961
27.50007,-0.0009884081
27.60007,-0.0009847683
27.70007,-0.0009812923
27.80007,-0.0009778051
27.90007,-0.0009742585
28.00007,-0.0009707807
28.10007,-0.0009674291
28.20007,-0.0009639174
28.30007,-0.000960482
28.40007,-0.0009571954
28.50007,-0.0009536704
28.60007,-0.0009503518
28.70007,-0.0009470557
28.80007,-0.0009435722
28.90007,-0.0009403676
29.00007,-0.0009370865
29.10007,-0.0009337132
29.20008,-0.0009306018
29.30008,-0.0009274564
29.40008,-0.000924084
29.50008,-0.0009209415
29.60008,-0.0009179289
29.70008,-0.0009146441
29.80008,-0.0009115392
29.90008,-0.0009086396
30.00008,-0.0009053511
30.10008,-0.0009023847
30.20008,-0.0008994729
30.30008,-0.0008962521
30.40008,-0.0008933779
30.50008,-0.0008903738
30.60008,-0.0008873622
30.70008,-0.0008845285
30.80008,-0.0008814999
30.90008,-0.0008785288
31.00008,-0.0008756875
31.10008,-0.000872706
31.20008,-0.0008698149
31.30008,-0.0008670114
31.40008,-0.0008641184
31.50008,-0.0008612555
31.60008,-0.0008586121
31.70008,-0.0008557576
31.80009,-0.0008530408
31.90009,-0.0008501798
32.00008,-0.000847688
32.10008,-0.0008449325
32.20008,-0.0008421751
32.30008,-0.0008394883
32.40008,-0.0008369202
32.50008,-0.0008341619
32.60007,-0.000831622
32.70007,-0.0008289701
32.80007,-0.000826257
32.90007,-0.0008236927
33.00007,-0.0008211575
33.10007,-0.0008185282
33.20007,-0.0008158923
33.30006,-0.0008134362
33.40006,-0.0008107711
33.50006,-0.0008082699
33.60006,-0.0008057979
33.70006,-0.0008032194
33.80006,-0.0008007135
33.90005,-0.0007982725
34.00005,-0.0007957364
34.10005,-0.0007933605
34.20005,-0.0007910655
34.30005,-0.0007883523
34.40005,-0.0007861063
34.50005,-0.0007837981
34.60004,-0.0007813147
34.70004,-0.0007789849
34.80004,-0.0007767596
34.90004,-0.0007742847
35.00004,-0.0007719794
35.10004,-0.0007697626
35.20004,-0.0007673659
35.30003,-0.0007650444
35.40003,-0.0007628361
35.50003,-0.0007604432
35.60003,-0.0007582405
35.70003,-0.0007560556
35.80003,-0.0007538802
35.90002,-0.0007516446
36.00002,-0.0007495332
36.10002,-0.0007472071
36.20002,-0.0007449197
36.30002,-0.0007429496
36.40002,-0.0007405792
36.50002,-0.0007385036
36.60001,-0.0007364667
36.70001,-0.000734263
36.80001,-0.0007321319
36.90001,-0.0007300657
37.00001,-0.000727865
37.10001,-0.0007257865
37.2,-0.000723758
37.3,-0.0007216127
37.4,-0.000719525
37.5,-0.0007175888
37.6,-0.0007154011
37.7,-0.0007134762
37.8,-0.0007114694
37.89999,-0.0007093354
37.99999,-0.0007073973
38.09999,-0.0007054018
38.19999,-0.0007034731
38.29999,-0.0007015209
38.39999,-0.0006995263
38.49998,-0.0006975082
38.59998,-0.0006956859
38.69998,-0.0006937337
38.79998,-0.0006917589
38.89998,-0.000689947
38.99998,-0.0006879421
39.09998,-0.0006859984
39.19997,-0.000684226
39.29997,-0.0006822409
39.39997,-0.0006803489
39.49997,-0.0006785662
39.59997,-0.0006766309
39.69997,-0.0006748068
39.79996,-0.0006730185
39.89996,-0.000671168
39.99996,-0.0006692581
40.09996,-0.000667548
40.19996,-0.0006657455
40.29996,-0.0006639335
40.39996,-0.0006621876
40.49995,-0.0006603955
40.59995,-0.000658608
40.69995,-0.0006568301
40.79995,-0.0006551322
40.89995,-0.0006533052
40.99995,-0.0006516826
41.09995,-0.0006499281
41.19994,-0.0006481558
41.29994,-0.0006464494
41.39994,-0.0006447769
41.49994,-0.0006430356
41.59994,-0.0006413923
41.69994,-0.0006397047
41.79993,-0.0006379089
41.89993,-0.0006363051
41.99993,-0.0006346721
42.09993,-0.0006329638
42.19993,-0.0006314061
42.29993,-0.0006296913
42.39993,-0.0006280725
42.49992,-0.0006265082
42.59992,-0.000624911
42.69992,-0.0006232395
42.79992,-0.0006216799
42.89992,-0.0006201139
42.99992,-0.0006184913
43.09991,-0.0006170146
43.19991,-0.0006154476
43.29991,-0.0006138466
43.39991,-0.0006123249
43.49991,-0.0006108246
43.59991,-0.0006092585
43.69991,-0.000607684
43.7999,-0.0006062233
43.8999,-0.000604725
43.9999,-0.0006032221
44.0999,-0.000601752
44.1999,-0.0006001285
44.2999,-0.0005987178
44.39989,-0.0005972863
44.49989,-0.0005958643
44.59989,-0.0005943773
44.69989,-0.0005928753
44.79989,-0.0005914241
44.89989,-0.0005899851
44.99989,-0.0005885725
45.09988,-0.0005871119
45.19988,-0.0005857454
45.29988,-0.0005843272
45.39988,-0.0005828486
45.49988,-0.0005815199
45.59988,-0.000580062
45.69987,-0.0005786984
45.79987,-0.0005773263
45.89987,-0.0005759561
45.99987,-0.0005745944
46.09987,-0.0005732166
46.19987,-0.0005718502
46.29987,-0.0005704574
46.39986,-0.0005691238
46.49986,-0.0005677819
46.59986,-0.0005664324
46.69986,-0.0005651008
46.79986,-0.0005637485
46.89986,-0.0005624375
46.99986,-0.000561105
47.09985,-0.0005597442
47.19985,-0.0005584229
47.29985,-0.0005570951
47.39985,-0.0005558058
47.49985,-0.0005545317
47.59985,-0.0005532265
47.69984,-0.00055199
47.79984,-0.0005506725
47.89984,-0.000549404
47.99984,-0.0005480997
48.09984,-0.0005469046
48.19984,-0.0005456503
48.29984,-0.0005443488
48.39983,-0.0005431509
48.49983,-0.0005418955
48.59983,-0.0005406826
48.69983,-0.0005394754
48.79983,-0.0005382887
48.89983,-0.0005370343
48.99982,-0.0005357903
49.09982,-0.0005346169
49.19982,-0.0005334538
49.29982,-0.0005322645
49.39982,-0.0005310393
49.49982,-0.0005298178
49.59982,-0.0005286671
49.69981,-0.0005275257
49.79981,-0.0005263259
49.89981,-0.0005251741
49.99981,-0.000524046
50.09981,-0.000522818
50.19981,-0.0005216794
50.2998,-0.0005205521
50.3998,-0.0005194033
50.4998,-0.0005182515
50.5998,-0.0005171083
50.6998,-0.000515949
50.7998,-0.000514915
50.8998,-0.0005137472
50.99979,-0.000512652
51.09979,-0.0005115445
51.19979,-0.0005105387
51.29979,-0.0005093295
51.39979,-0.0005082654
51.49979,-0.000507173
51.59978,-0.0005060495
51.69978,-0.0005050108
51.79978,-0.0005039608
51.89978,-0.0005028259
51.99978,-0.00050179
52.09978,-0.000500805
52.19978,-0.0004997088
52.29977,-0.0004987021
52.39977,-0.000497654
52.49977,-0.0004965597
52.59977,-0.0004955417
52.69977,-0.0004944728
52.79977,-0.0004934755
52.89977,-0.0004924509
52.99976,-0.0004913434
53.09976,-0.0004903593
53.19976,-0.0004893809
53.29976,-0.0004882988
53.39976,-0.0004872789
53.49976,-0.0004863136
53.59975,-0.0004853286
53.69975,-0.0004843379
53.79975,-0.0004833048
53.89975,-0.0004822821
53.99975,-0.0004813065
54.09975,-0.0004802574
54.19975,-0.0004792808
54.29974,-0.0004782995
54.39974,-0.0004773192
54.49974,-0.0004763981
54.59974,-0.0004754715
54.69974,-0.0004745326
54.79974,-0.0004734854
54.89973,-0.0004726077
54.99973,-0.0004716575
55.09973,-0.0004707148
55.19973,-0.0004698183
55.29973,-0.00046882
55.39973,-0.0004678275
55.49973,-0.0004669733
55.59972,-0.0004660457
55.69972,-0.0004650569
55.79972,-0.0004641189
55.89972,-0.0004632242
55.99972,-0.0004623673
56.09972,-0.0004615084
56.19971,-0.0004605846
56.29971,-0.0004596344
56.39971,-0.0004587181
56.49971,-0.0004578008
56.59971,-0.000456893
56.69971,-0.0004559786
56.79971,-0.0004550416
56.8997,-0.0004541497
56.9997,-0.0004532494
57.0997,-0.0004524518
57.1997,-0.000451479
57.2997,-0.0004506851
57.3997,-0.0004498027
57.49969,-0.0004488591
57.59969,-0.0004480002
57.69969,-0.0004470962
57.79969,-0.0004462289
57.89969,-0.00044537
57.99969,-0.0004444754
58.09969,-0.0004436165
58.19968,-0.0004427454
58.29968,-0.0004419911
58.39968,-0.0004411906
58.49968,-0.0004403496
58.59968,-0.0004394879
58.69968,-0.0004386715
58.79967,-0.0004377956
58.89967,-0.0004369679
58.99967,-0.0004361655
59.09967,-0.0004352982
59.19967,-0.0004344628
59.29967,-0.0004336558
59.39967,-0.000432812
59.49966,-0.0004320134
59.59966,-0.0004312026
59.69966,-0.0004303927
59.79966,-0.0004295385
59.89966,-0.00042874
59.99966,-0.0004279555
60.09966,-0.0004270769
60.19965,-0.0004263216
60.29965,-0.0004255701
60.39965,-0.0004246679
60.49965,-0.0004239155
60.59965,-0.0004230726
60.69965,-0.0004223174
60.79964,-0.0004215564
60.89964,-0.0004207917
60.99964,-0.0004200073
61.09964,-0.0004192247
61.19964,-0.0004184299
61.29964,-0.0004176633
61.39964,-0.0004169438
61.49963,-0.0004161207
61.59963,-0.0004153203
61.69963,-0.000414581
61.79963,-0.0004137749
61.89963,-0.0004130884
61.99963,-0.00041227
62.09962,-0.0004115308
62.19962,-0.0004107755
62.29962,-0.0004100504
62.39962,-0.0004092659
62.49962,-0.0004086171
62.59962,-0.0004078288
62.69962,-0.0004070538
62.79961,-0.0004063682
62.89961,-0.0004055941
62.99961,-0.0004048125
63.09961,-0.0004041428
63.19961,-0.0004034243
63.29961,-0.0004026248
63.3996,-0.0004018827
63.4996,-0.0004012461
63.5996,-0.0004004786
63.6996,-0.0003997638
63.7996,-0.0003991197
63.8996,-0.0003983898
63.9996,-0.0003976854
64.09959,-0.0003969885
64.19959,-0.0003962163
64.29959,-0.000395559
64.39959,-0.0003949214
64.49959,-0.0003941737
64.59959,-0.0003934966
64.69958,-0.0003928374
64.79958,-0.0003921236
64.89958,-0.0003914634
64.99958,-0.0003907731
65.09958,-0.0003900018
65.19958,-0.0003893482
65.29958,-0.0003887069
65.39957,-0.0003880082
65.49957,-0.0003873094
65.59957,-0.0003866116
65.69957,-0.0003859618
65.79957,-0.0003853469
65.89957,-0.0003846763
65.99957,-0.0003839795
66.09956,-0.0003834078
66.19956,-0.0003826968
66.29956,-0.0003820159
66.39956,-0.0003814179
66.49956,-0.0003806759
66.59956,-0.0003800346
66.69955,-0.0003794714
66.79955,-0.0003787952
66.89955,-0.0003780635
66.99955,-0.0003774947
67.09955,-0.0003768138
67.19955,-0.0003762459
67.29955,-0.0003756442
67.39954,-0.000374985
67.49954,-0.0003743898
67.59954,-0.0003737532
67.69954,-0.0003730478
67.79954,-0.0003724752
67.89954,-0.0003719196
67.99953,-0.0003712812
68.09953,-0.0003706285
68.19953,-0.0003701256
68.29953,-0.0003695371
68.39953,-0.0003688722
68.49953,-0.0003683947
68.59953,-0.0003677459
68.69952,-0.0003670942
68.79952,-0.0003664745
68.89952,-0.0003658888
68.99952,-0.0003652145
69.09952,-0.0003646655
69.19952,-0.0003640515
69.29951,-0.0003634685
69.39951,-0.0003628602
69.49951,-0.0003623696
69.59951,-0.0003617452
69.69951,-0.0003611265
69.79951,-0.0003605219
69.89951,-0.0003599756
69.9995,-0.0003593908
70.0995,-0.0003588512
70.1995,-0.0003582193
70.2995,-0.0003577334
70.3995,-0.000357141
70.4995,-0.0003565346
70.59949,-0.0003559375
70.69949,-0.0003553715
70.79949,-0.000354798
70.89949,-0.0003542104
70.99949,-0.0003535945
71.09949,-0.0003530473
71.19949,-0.0003524672
71.29948,-0.0003518721
71.39948,-0.000351291
71.49948,-0.0003507316
71.59948,-0.000350159
71.69948,-0.0003496044
71.79948,-0.0003490083
71.89948,-0.0003484922
71.99947,-0.0003480063
72.09947,-0.000347365
72.19947,-0.0003467745
72.29947,-0.0003462707
72.39947,-0.0003456821
72.49947,-0.0003451415
72.59946,-0.0003445774
72.69946,-0.0003440039
72.79946,-0.0003436347
72.89946,-0.0003430801
72.99946,-0.0003424133
73.09946,-0.0003419038
73.19946,-0.000341433
73.29945,-0.0003408369
73.39945,-0.0003403255
73.49945,-0.0003397708
73.59945,-0.0003392124
73.69945,-0.0003387246
73.79945,-0.0003382574
73.89944,-0.0003376529
73.99944,-0.0003371217
74.09944,-0.0003366254
74.19944,-0.0003360501
74.29944,-0.0003355933
74.39944,-0.0003350612
74.49944,-0.0003345113
74.59943,-0.0003340282
74.69943,-0.0003335309
74.79943,-0.000333012
74.89943,-0.0003324592
74.99943,-0.000331995
75.09943,-0.0003314308
75.19942,-0.0003309675
75.29942,-0.0003305513
75.39942,-0.0003299712
75.49942,-0.0003294937
75.59942,-0.0003289362
75.69942,-0.0003284117
75.79942,-0.0003279417
75.89941,-0.0003274285
75.99941,-0.000326854
76.09941,-0.0003264067
76.19941,-0.0003259246
76.29941,-0.000325351
76.39941,-0.000324915
76.4994,-0.0003243763
76.5994,-0.0003237934
76.6994,-0.0003233329
76.7994,-0.0003228507
76.8994,-0.0003223394
76.9994,-0.0003218798
77.0994,-0.0003213731
77.19939,-0.000320826
77.29939,-0.0003203938
77.39939,-0.000319904
77.49939,-0.0003194294
77.59939,-0.0003190339
77.69939,-0.0003185094
77.79939,-0.0003180121
77.89938,-0.0003175262
77.99938,-0.000316996
78.09938,-0.0003165421
78.19938,-0.0003161127
78.29938,-0.0003155721
78.39938,-0.0003151012
78.49937,-0.0003146774
78.59937,-0.0003142038
78.69937,-0.0003136773
78.79937,-0.0003132686
78.89937,-0.0003128006
78.99937,-0.0003123466
79.09937,-0.0003119549
79.19936,-0.0003115255
79.29936,-0.0003110772
79.39936,-0.0003106563
79.49936,-0.0003102042
79.59936,-0.0003097663
79.69936,-0.0003093651
79.79935,-0.0003089225
79.89935,-0.0003084959
79.99935,-0.000308107
80.09935,-0.0003076342
80.19935,-0.0003071549
80.29935,-0.0003067593
80.39935,-0.0003063224
80.49934,-0.0003058506
80.59934,-0.0003054136
80.69934,-0.0003049861
80.79934,-0.0003045538
80.89934,-0.0003041103
80.99934,-0.0003037119
81.09933,-0.00030321
81.19933,-0.0003028568
81.29933,-0.0003024152
81.39933,-0.0003019433
81.49933,-0.0003015102
81.59933,-0.0003010543
81.69933,-0.0003006739
81.79932,-0.0003002218
81.89932,-0.0002998254
81.99932,-0.0002993828
82.09932,-0.0002989261
82.19932,-0.0002985211
82.29932,-0.0002980681
82.39931,-0.0002976434
82.49931,-0.0002972507
82.59931,-0.0002968081
82.69931,-0.0002963372
82.79931,-0.0002961169
82.89931,-0.0002957298
82.99931,-0.0002952072
83.0993,-0.0002947796
83.1993,-0.0002943897
83.2993,-0.000293981
83.3993,-0.0002935817
83.4993,-0.0002931927
83.5993,-0.0002927483
83.6993,-0.0002923264
83.79929,-0.0002920278
83.89929,-0.000291574
83.99929,-0.0002910974
84.09929,-0.000290781
84.19929,-0.0002903733
84.29929,-0.0002899118
84.39928,-0.00028952
84.49928,-0.0002891066
84.59928,-0.0002887064
84.69928,-0.0002883259
84.79928,-0.0002879031
84.89928,-0.0002874755
84.99928,-0.0002870546
85.09927,-0.0002866534
85.19927,-0.0002863228
85.29927,-0.0002859669
85.39927,-0.0002854941
85.49927,-0.0002850939
85.59927,-0.0002847803
85.69926,-0.0002843593
85.79926,-0.00028401
85.89926,-0.0002836116
85.99926,-0.0002832085
86.09926,-0.0002828347
86.19926,-0.0002824599
86.29926,-0.000282038
86.39925,-0.0002816142
86.49925,-0.0002812582
86.59925,-0.0002807968
86.69925,-0.0002805096
86.79925,-0.0002800726
86.89925,-0.000279694
86.99924,-0.000279338
87.09924,-0.0002789435
87.19924,-0.0002785253
87.29924,-0.0002781581
87.39924,-0.0002777776
87.49924,-0.0002774084
87.59924,-0.0002770383
87.69923,-0.0002766682
87.79923,-0.000276269
87.89923,-0.0002759092
87.99923,-0.0002755429
88.09923,-0.0002751031
88.19923,-0.0002747829
88.29922,-0.0002744203
88.39922,-0.0002740078
88.49922,-0.0002736697
88.59922,-0.0002733166
88.69922,-0.0002728975
88.79922,-0.0002725971
88.89922,-0.0002722581
88.99921,-0.0002718531
89.09921,-0.0002715292
89.19921,-0.0002711054
