EXPID. 1129
[电化学]: i-t : @ 0(V) X 600(sec)
起始电位 (V),0
静置时间 (秒),0
运行时间 (秒),600
记录间隔,0.1
电解液 信息:
HNO3,0.4
0.1,-0.01005814
0.2,-0.01005814
0.3,-0.01005814
0.4,-0.01005814
0.5,-0.01005814
0.6,-0.01005814
0.7,-0.01005814
0.8000001,-0.01005814
0.9000001,-0.01005814
1,-0.01005814
1.1,-0.01005814
1.2,-0.01005814
1.3,-0.01005814
1.4,-0.01005814
1.5,-0.01005814
1.6,-0.01005814
1.7,0.0004106195
1.8,0.0100315
1.9,0.0100315
2,0.009578419
2.1,0.009149638
2.2,0.009970189
2.3,0.0100315
2.4,0.0100315
2.5,0.01002518
2.6,0.008351785
2.7,0.004993565
2.799999,0.001353707
2.899999,-0.001078034
2.999999,-0.002487303
3.099999,-0.003394645
3.199999,-0.004002775
3.299999,-0.004428901
3.399999,-0.004730443
3.499999,-0.004933988
3.599999,-0.005072418
3.699999,-0.005153019
3.799999,-0.005204007
3.899998,-0.005220445
3.999998,-0.005205662
4.099998,-0.005190303
4.199998,-0.005166137
4.299998,-0.005123897
4.399998,-0.005089163
4.499998,-0.005050796
4.599998,-0.005001755
4.699998,-0.004956528
4.799998,-0.004914896
4.899998,-0.004862703
4.999998,-0.004819476
5.099998,-0.004777215
5.199997,-0.004720434
5.299997,-0.004676799
5.399997,-0.004632352
5.499997,-0.004580059
5.599997,-0.004536746
5.699997,-0.004486371
5.799997,-0.004433142
5.899997,-0.004387788
5.999997,-0.00434135
6.099997,-0.004289165
6.199996,-0.004241417
6.299996,-0.004193634
6.399996,-0.00414492
6.499996,-0.004101135
6.599996,-0.004053605
6.699996,-0.004007357
6.799996,-0.003962204
6.899996,-0.003916244
6.999996,-0.003871923
7.099996,-0.003831092
7.199996,-0.003787432
7.299995,-0.003746575
7.399995,-0.003707227
7.499995,-0.003669739
7.599995,-0.003631704
7.699995,-0.00359364
7.799995,-0.003558033
7.899995,-0.003521854
7.999995,-0.003486281
8.099995,-0.003452043
8.199995,-0.00342007
8.299995,-0.003387084
8.399996,-0.003355331
8.499996,-0.003324452
8.599997,-0.003294044
8.699997,-0.003264209
8.799997,-0.003235542
8.899998,-0.003206533
8.999998,-0.003178498
9.099998,-0.003151583
9.199999,-0.003124187
9.299999,-0.003097443
9.4,-0.003071103
9.5,-0.00304611
9.6,-0.003020818
9.700001,-0.002996368
9.800001,-0.002971651
9.900002,-0.002947523
10,-0.002924865
10.1,-0.002901306
10.2,-0.002878584
10.3,-0.002856536
10.4,-0.002833643
10.5,-0.00281179
10.6,-0.002790183
10.7,-0.002768603
10.8,-0.002747389
10.90001,-0.002726951
11.00001,-0.002706101
11.10001,-0.002685099
11.20001,-0.002665821
11.30001,-0.002645457
11.40001,-0.002625926
11.50001,-0.002606875
11.60001,-0.002587301
11.70001,-0.002568524
11.80001,-0.002549985
11.90001,-0.002531037
12.00001,-0.002512803
12.10001,-0.002495145
12.20001,-0.002476149
12.30001,-0.002459497
12.40001,-0.002442377
12.50001,-0.002423654
12.60001,-0.002407256
12.70001,-0.002390276
12.80001,-0.002372554
12.90001,-0.002356319
13.00001,-0.002339853
13.10001,-0.002323094
13.20001,-0.002307159
13.30001,-0.002291245
13.40001,-0.002275031
13.50002,-0.002260107
13.60002,-0.002243973
13.70002,-0.002227945
13.80002,-0.00221309
13.90002,-0.002197579
14.00002,-0.002182366
14.10002,-0.002167657
14.20002,-0.002152542
14.30002,-0.00213794
14.40002,-0.002123332
14.50002,-0.002109251
14.60002,-0.00209449
14.70002,-0.002080995
14.80002,-0.00206657
14.90002,-0.002052481
15.00002,-0.002038875
15.10002,-0.002024807
15.20002,-0.002011944
15.30002,-0.001998075
15.40002,-0.0019853
15.50002,-0.001971801
15.60002,-0.001958358
15.70002,-0.001946142
15.80002,-0.001933298
15.90002,-0.001919972
16.00002,-0.001907309
16.10003,-0.001894759
16.20003,-0.001881756
16.30003,-0.001869501
16.40003,-0.001857248
16.50003,-0.001844756
16.60003,-0.001832954
16.70003,-0.001820589
16.80003,-0.001808592
16.90003,-0.00179673
17.00003,-0.001784654
17.10003,-0.001772986
17.20003,-0.001761658
17.30003,-0.001750118
17.40003,-0.001738733
17.50003,-0.001727403
17.60003,-0.001716103
17.70003,-0.001704658
17.80003,-0.001694383
17.90003,-0.001683426
18.00003,-0.001672398
18.10003,-0.001661509
18.20003,-0.001650739
18.30003,-0.00164035
18.40003,-0.001629558
18.50003,-0.00161952
18.60003,-0.00160921
18.70004,-0.001598737
18.80004,-0.001588896
18.90004,-0.001579042
19.00004,-0.00156871
19.10004,-0.001558893
19.20004,-0.001549248
19.30004,-0.001539064
19.40004,-0.001529451
19.50004,-0.001519669
19.60004,-0.001510053
19.70004,-0.001500591
19.80004,-0.001491156
19.90004,-0.00148146
20.00004,-0.001472058
20.10004,-0.001463022
20.20004,-0.001453469
20.30004,-0.001444323
20.40004,-0.001435764
20.50004,-0.001426455
20.60004,-0.001417772
20.70004,-0.001408808
20.80004,-0.001399997
20.90004,-0.001391204
21.00004,-0.001382491
21.10004,-0.001373952
21.20004,-0.001365514
21.30005,-0.00135705
21.40005,-0.001348711
21.50005,-0.001340304
21.60005,-0.001332197
21.70005,-0.001323882
21.80005,-0.001315518
21.90005,-0.001307584
22.00005,-0.001299752
22.10005,-0.001291538
22.20005,-0.001283605
22.30005,-0.00127597
22.40005,-0.001268103
22.50005,-0.001260599
22.60005,-0.001253425
22.70005,-0.001245346
22.80005,-0.001237811
22.90005,-0.001230566
23.00005,-0.001223103
23.10005,-0.001215704
23.20005,-0.001208587
23.30005,-0.001200846
23.40005,-0.001193808
23.50005,-0.001186668
23.60005,-0.001179178
23.70005,-0.001172312
23.80005,-0.001165398
23.90005,-0.001158287
24.00006,-0.001151554
24.10006,-0.001144683
24.20006,-0.001137859
24.30006,-0.001131219
24.40006,-0.001124419
24.50006,-0.00111783
24.60006,-0.001111503
24.70006,-0.00110469
24.80006,-0.001098318
24.90006,-0.001091811
25.00006,-0.00108542
25.10006,-0.001079186
25.20006,-0.001072975
25.30006,-0.001066735
25.40006,-0.001060681
25.50006,-0.001054578
25.60006,-0.001048395
25.70006,-0.001042533
25.80006,-0.001036482
25.90006,-0.001030387
26.00006,-0.001024513
26.10006,-0.001018587
26.20006,-0.001012904
26.30006,-0.001007016
26.40006,-0.001001237
26.50006,-0.0009955728
26.60007,-0.0009899723
26.70007,-0.0009844868
26.80007,-0.000978665
26.90007,-0.0009733969
27.00007,-0.0009677804
27.10007,-0.0009622609
27.20007,-0.0009570983
27.30007,-0.0009516382
27.40007,-0.0009463052
27.50007,-0.0009411209
27.60007,-0.0009357248
27.70007,-0.0009306432
27.80007,-0.0009253704
27.90007,-0.0009202776
28.00007,-0.0009154135
28.10007,-0.0009104036
28.20007,-0.0009052071
28.30007,-0.0009003298
28.40007,-0.0008954648
28.50007,-0.000890469
28.60007,-0.0008858469
28.70007,-0.0008810611
28.80007,-0.000876083
28.90007,-0.0008714657
29.00007,-0.0008666639
29.10007,-0.0008619637
29.20008,-0.0008574838
29.30008,-0.0008528515
29.40008,-0.0008483745
29.50008,-0.0008440792
29.60008,-0.0008397012
29.70008,-0.0008351384
29.80008,-0.0008306587
29.90008,-0.0008263936
30.00008,-0.0008220606
30.10008,-0.0008176892
30.20008,-0.0008134786
30.30008,-0.0008093152
30.40008,-0.000805116
30.50008,-0.0008015083
30.60008,-0.000797375
30.70008,-0.000792704
30.80008,-0.000788647
30.90008,-0.0007848547
31.00008,-0.0007805764
31.10008,-0.0007765298
31.20008,-0.0007726885
31.30008,-0.0007685844
31.40008,-0.0007646527
31.50008,-0.0007611165
31.60008,-0.0007569107
31.70008,-0.0007531315
31.80009,-0.000749715
31.90009,-0.000745673
32.00008,-0.0007422536
32.10008,-0.0007386365
32.20008,-0.0007347763
32.30008,-0.0007310752
32.40008,-0.0007274477
32.50008,-0.0007238588
32.60007,-0.0007203753
32.70007,-0.000716792
32.80007,-0.0007130628
32.90007,-0.000709746
33.00007,-0.00070627
33.10007,-0.0007027753
33.20007,-0.0006993926
33.30006,-0.0006961578
33.40006,-0.000692873
33.50006,-0.0006896335
33.60006,-0.0006863694
33.70006,-0.0006830036
33.80006,-0.0006796219
33.90005,-0.0006764511
34.00005,-0.000673187
34.10005,-0.0006700765
34.20005,-0.0006669368
34.30005,-0.0006636915
34.40005,-0.0006604953
34.50005,-0.0006575063
34.60004,-0.000654457
34.70004,-0.0006512842
34.80004,-0.0006484751
34.90004,-0.0006455161
35.00004,-0.0006422869
35.10004,-0.000639361
35.20004,-0.000636404
35.30003,-0.000633445
35.40003,-0.0006304908
35.50003,-0.0006275677
35.60003,-0.0006246907
35.70003,-0.0006217911
35.80003,-0.0006191373
35.90002,-0.0006162603
36.00002,-0.0006133955
36.10002,-0.0006107013
36.20002,-0.0006079561
36.30002,-0.0006052119
36.40002,-0.0006026109
36.50002,-0.0005997885
36.60001,-0.0005971827
36.70001,-0.0005946335
36.80001,-0.0005919863
36.90001,-0.0005893522
37.00001,-0.0005868566
37.10001,-0.000584265
37.2,-0.0005816601
37.3,-0.0005792456
37.4,-0.0005767585
37.5,-0.0005741762
37.6,-0.0005717795
37.7,-0.0005694723
37.8,-0.0005668307
37.89999,-0.0005645301
37.99999,-0.0005620467
38.09999,-0.0005596491
38.19999,-0.0005574888
38.29999,-0.0005551589
38.39999,-0.0005527264
38.49998,-0.0005503485
38.59998,-0.0005480846
38.69998,-0.0005458753
38.79998,-0.0005435511
38.89998,-0.0005413484
38.99998,-0.0005392191
39.09998,-0.000536943
39.19997,-0.0005347704
39.29997,-0.0005326007
39.39997,-0.0005302473
39.49997,-0.0005280945
39.59997,-0.0005261197
39.69997,-0.0005239236
39.79996,-0.0005217519
39.89996,-0.0005197875
39.99996,-0.0005175612
40.09996,-0.0005155873
40.19996,-0.0005134703
40.29996,-0.0005114786
40.39996,-0.0005094322
40.49995,-0.0005074008
40.59995,-0.0005053507
40.69995,-0.0005034201
40.79995,-0.0005014162
40.89995,-0.0004994498
40.99995,-0.0004975043
41.09995,-0.0004955973
41.19994,-0.0004936187
41.29994,-0.0004917521
41.39994,-0.0004898169
41.49994,-0.0004879108
41.59994,-0.0004861206
41.69994,-0.0004842974
41.79993,-0.0004824064
41.89993,-0.0004805079
41.99993,-0.0004785453
42.09993,-0.0004768521
42.19993,-0.0004751381
42.29993,-0.000473313
42.39993,-0.000471504
42.49992,-0.0004698154
42.59992,-0.0004680064
42.69992,-0.0004662623
42.79992,-0.0004645436
42.89992,-0.000462825
42.99992,-0.0004611101
43.09991,-0.0004594507
43.19991,-0.0004578074
43.29991,-0.0004560954
43.39991,-0.0004544473
43.49991,-0.0004527984
43.59991,-0.0004511861
43.69991,-0.0004495946
43.7999,-0.0004479786
43.8999,-0.0004463211
43.9999,-0.0004447211
44.0999,-0.0004431465
44.1999,-0.000441669
44.2999,-0.0004401989
44.39989,-0.0004385481
44.49989,-0.0004369839
44.59989,-0.0004355618
44.69989,-0.0004339892
44.79989,-0.0004326161
44.89989,-0.0004310001
44.99989,-0.0004293945
45.09988,-0.0004280421
45.19988,-0.0004265165
45.29988,-0.0004249099
45.39988,-0.0004235021
45.49988,-0.0004220923
45.59988,-0.0004206787
45.69987,-0.0004192784
45.79987,-0.0004178375
45.89987,-0.0004162356
45.99987,-0.0004149652
46.09987,-0.0004136402
46.19987,-0.0004120892
46.29987,-0.0004109742
46.39986,-0.0004094703
46.49986,-0.0004080464
46.59986,-0.0004067176
46.69986,-0.0004053568
46.79986,-0.0004039922
46.89986,-0.0004026493
46.99986,-0.0004012273
47.09985,-0.0003998796
47.19985,-0.0003987232
47.29985,-0.0003973106
47.39985,-0.0003959338
47.49985,-0.0003946851
47.59985,-0.0003933949
47.69984,-0.0003922573
47.79984,-0.000390855
47.89984,-0.0003895507
47.99984,-0.0003883924
48.09984,-0.0003871757
48.19984,-0.000385877
48.29984,-0.0003846744
48.39983,-0.0003835481
48.49983,-0.0003824896
48.59983,-0.0003814189
48.69983,-0.0003800101
48.79983,-0.0003789176
48.89983,-0.0003777
48.99982,-0.0003764644
49.09982,-0.0003753768
49.19982,-0.0003742504
49.29982,-0.0003730271
49.39982,-0.0003718801
49.49982,-0.0003707302
49.59982,-0.0003695145
49.69981,-0.0003683335
49.79981,-0.0003675039
49.89981,-0.000366242
49.99981,-0.0003652371
50.09981,-0.0003640393
50.19981,-0.0003628988
50.2998,-0.0003617216
50.3998,-0.0003606669
50.4998,-0.0003595142
50.5998,-0.0003585367
50.6998,-0.0003574095
50.7998,-0.0003563547
50.8998,-0.0003553894
50.99979,-0.0003543837
51.09979,-0.0003531283
51.19979,-0.0003521725
51.29979,-0.0003511451
51.39979,-0.000349998
51.49979,-0.0003489922
51.59978,-0.0003479949
51.69978,-0.000346911
51.79978,-0.000345974
51.89978,-0.0003448872
51.99978,-0.0003438786
52.09978,-0.0003430499
52.19978,-0.0003420357
52.29977,-0.0003409932
52.39977,-0.0003400213
52.49977,-0.0003391841
52.59977,-0.0003381774
52.69977,-0.0003371603
52.79977,-0.0003362299
52.89977,-0.0003353164
52.99976,-0.0003342589
53.09976,-0.0003334895
53.19976,-0.000332576
53.29976,-0.0003315241
53.39976,-0.0003306821
53.49976,-0.0003298167
53.59975,-0.0003287092
53.69975,-0.0003277524
53.79975,-0.0003269397
53.89975,-0.000325886
53.99975,-0.0003251081
54.09975,-0.0003242049
54.19975,-0.0003232086
54.29974,-0.0003223676
54.39974,-0.0003214899
54.49974,-0.0003205039
54.59974,-0.0003196583
54.69974,-0.0003187871
54.79974,-0.0003178548
54.89973,-0.0003170845
54.99973,-0.0003162285
55.09973,-0.0003152397
55.19973,-0.0003145107
55.29973,-0.0003136425
55.39973,-0.000312794
55.49973,-0.0003121046
55.59972,-0.000311258
55.69972,-0.0003102805
55.79972,-0.0003094716
55.89972,-0.00030864
55.99972,-0.0003077717
56.09972,-0.0003070777
56.19971,-0.0003062574
56.29971,-0.0003054118
56.39971,-0.0003048175
56.49971,-0.0003039699
56.59971,-0.00030308
56.69971,-0.0003023238
56.79971,-0.0003015017
56.8997,-0.0003006334
56.9997,-0.0002998998
57.0997,-0.0002991266
57.1997,-0.0002983262
57.2997,-0.0002976114
57.3997,-0.0002969955
57.49969,-0.0002960509
57.59969,-0.0002953079
57.69969,-0.0002945771
57.79969,-0.0002937456
57.89969,-0.0002929809
57.99969,-0.0002923085
58.09969,-0.0002915834
58.19968,-0.0002908017
58.29968,-0.0002900916
58.39968,-0.0002893618
58.49968,-0.0002885425
58.59968,-0.0002878645
58.69968,-0.0002871713
58.79967,-0.0002864048
58.89967,-0.0002857418
58.99967,-0.0002850232
59.09967,-0.0002843208
59.19967,-0.0002836333
59.29967,-0.0002829542
59.39967,-0.0002822395
59.49966,-0.0002816566
59.59966,-0.0002810162
59.69966,-0.0002801621
59.79966,-0.0002795518
59.89966,-0.0002788512
59.99966,-0.0002781929
60.09966,-0.0002776975
60.19965,-0.0002769705
60.29965,-0.0002762576
60.39965,-0.0002756671
60.49965,-0.0002749778
60.59965,-0.0002742179
60.69965,-0.0002736622
60.79964,-0.0002729748
60.89964,-0.0002722477
60.99964,-0.0002717731
61.09964,-0.0002711186
61.19964,-0.0002704895
61.29964,-0.0002698152
61.39964,-0.0002691353
61.49963,-0.0002684883
61.59963,-0.0002678743
61.69963,-0.0002672349
61.79963,-0.0002666162
61.89963,-0.0002659871
61.99963,-0.0002653731
62.09962,-0.0002647892
62.19962,-0.00026421
62.29962,-0.00026358
62.39962,-0.0002629802
62.49962,-0.0002623756
62.59962,-0.0002617681
62.69962,-0.0002611607
62.79961,-0.0002605571
62.89961,-0.000260106
62.99961,-0.0002594063
63.09961,-0.0002587056
63.19961,-0.0002581651
63.29961,-0.0002575718
63.3996,-0.000256987
63.4996,-0.0002563739
63.5996,-0.0002558437
63.6996,-0.0002552391
63.7996,-0.0002547466
63.8996,-0.0002541872
63.9996,-0.000253496
64.09959,-0.0002529573
64.19959,-0.0002524403
64.29959,-0.0002518338
64.39959,-0.0002512942
64.49959,-0.0002507207
64.59959,-0.0002500681
64.69958,-0.0002496518
64.79958,-0.0002491433
64.89958,-0.0002484897
64.99958,-0.0002479416
65.09958,-0.0002474783
65.19958,-0.0002468492
65.29958,-0.0002463162
65.39957,-0.000245786
65.49957,-0.0002451767
65.59957,-0.0002446428
65.69957,-0.0002441314
65.79957,-0.0002436022
65.89957,-0.0002430531
65.99957,-0.0002425389
66.09956,-0.0002420794
66.19956,-0.0002415708
66.29956,-0.0002409851
66.39956,-0.0002405171
66.49956,-0.0002400867
66.59956,-0.0002395744
66.69955,-0.0002390592
66.79955,-0.0002387984
66.89955,-0.0002382268
66.99955,-0.000237625
67.09955,-0.0002371946
67.19955,-0.000236785
67.29955,-0.0002361964
67.39954,-0.0002357123
67.49954,-0.0002352556
67.59954,-0.0002347009
67.69954,-0.000234166
67.79954,-0.0002337723
67.89954,-0.0002332525
67.99953,-0.0002327299
68.09953,-0.0002322948
68.19953,-0.0002318126
68.29953,-0.0002312918
68.39953,-0.0002308304
68.49953,-0.0002303953
68.59953,-0.0002298708
68.69952,-0.0002294159
68.79952,-0.000228978
68.89952,-0.0002284836
68.99952,-0.0002280721
69.09952,-0.0002276003
69.19952,-0.0002271294
69.29951,-0.0002266717
69.39951,-0.0002262074
69.49951,-0.0002257281
69.59951,-0.0002253109
69.69951,-0.000224824
69.79951,-0.0002244728
69.89951,-0.0002241196
69.9995,-0.0002236619
70.0995,-0.0002231882
70.1995,-0.0002227682
70.2995,-0.0002223087
70.3995,-0.0002218105
70.4995,-0.0002213801
70.59949,-0.0002209036
70.69949,-0.0002204412
70.79949,-0.0002201276
70.89949,-0.0002196906
70.99949,-0.0002191435
71.09949,-0.0002187875
71.19949,-0.0002184372
71.29948,-0.0002179183
71.39948,-0.0002175586
71.49948,-0.0002171028
71.59948,-0.0002166743
71.69948,-0.0002162364
71.79948,-0.0002158512
71.89948,-0.0002154152
71.99947,-0.0002149763
72.09947,-0.0002146307
72.19947,-0.0002142305
72.29947,-0.0002138651
72.39947,-0.0002134489
72.49947,-0.0002129733
72.59946,-0.0002125702
72.69946,-0.0002121408
72.79946,-0.0002117029
72.89946,-0.0002112857
72.99946,-0.0002109128
73.09946,-0.0002105012
73.19946,-0.0002100982
73.29945,-0.0002096621
73.39945,-0.0002092243
73.49945,-0.0002088786
73.59945,-0.0002084718
73.69945,-0.0002080763
73.79945,-0.0002076873
73.89944,-0.0002072975
73.99944,-0.0002069001
74.09944,-0.000206529
74.19944,-0.0002061495
74.29944,-0.0002057436
74.39944,-0.0002053038
74.49944,-0.000204961
74.59943,-0.0002045655
74.69943,-0.0002041822
74.79943,-0.0002038479
74.89943,-0.0002034307
74.99943,-0.0002030719
75.09943,-0.0002027206
75.19942,-0.0002023393
75.29942,-0.000201971
75.39942,-0.0002016
75.49942,-0.0002012346
75.59942,-0.0002008683
75.69942,-0.00020055
75.79942,-0.0002001987
75.89941,-0.0001998192
75.99941,-0.0001994802
76.09941,-0.0001991195
76.19941,-0.0001987051
76.29941,-0.0001985158
76.39941,-0.0001982634
76.4994,-0.00019777
76.5994,-0.000197381
76.6994,-0.0001970392
76.7994,-0.0001966032
76.8994,-0.0001964016
76.9994,-0.0001960052
77.0994,-0.0001956153
77.19939,-0.0001953337
77.29939,-0.0001950135
77.39939,-0.0001945596
77.49939,-0.0001942017
77.59939,-0.0001939032
77.69939,-0.000193552
77.79939,-0.0001932807
77.89938,-0.0001929719
77.99938,-0.0001925829
78.09938,-0.0001922608
78.19938,-0.0001918766
78.29938,-0.0001915828
78.39938,-0.0001912965
78.49937,-0.0001909518
78.59937,-0.0001906156
78.69937,-0.0001903011
78.79937,-0.0001899366
78.89937,-0.0001895524
78.99937,-0.0001892803
79.09937,-0.0001889572
79.19936,-0.0001886333
79.29936,-0.0001883696
79.39936,-0.0001880645
79.49936,-0.0001877471
79.59936,-0.0001874288
79.69936,-0.0001871472
79.79935,-0.0001868544
79.89935,-0.000186537
79.99935,-0.0001862573
80.09935,-0.000185923
80.19935,-0.0001855661
80.29935,-0.0001852026
80.39935,-0.00018497
80.49934,-0.000184645
80.59934,-0.0001843023
80.69934,-0.0001840056
80.79934,-0.0001836459
80.89934,-0.0001834067
80.99934,-0.0001831204
81.09933,-0.0001827729
81.19933,-0.000182496
81.29933,-0.0001822163
81.39933,-0.0001819037
81.49933,-0.0001816438
81.59933,-0.0001813415
81.69933,-0.0001809488
81.79932,-0.0001807331
81.89932,-0.0001804402
81.99932,-0.0001800899
82.09932,-0.0001799289
82.19932,-0.0001796209
82.29932,-0.0001792819
82.39931,-0.0001789975
82.49931,-0.0001786585
82.59931,-0.0001783835
82.69931,-0.0001781094
82.79931,-0.0001778411
82.89931,-0.0001774954
82.99931,-0.000177227
83.0993,-0.000176954
83.1993,-0.0001766921
83.2993,-0.0001764398
83.3993,-0.0001762994
83.4993,-0.000176047
83.5993,-0.0001756854
83.6993,-0.000175337
83.79929,-0.0001751298
83.89929,-0.0001747983
83.99929,-0.0001745327
84.09929,-0.000174237
84.19929,-0.0001739592
84.29929,-0.0001737078
84.39928,-0.0001734507
84.49928,-0.0001731588
84.59928,-0.0001728593
84.69928,-0.0001726342
84.79928,-0.0001723517
84.89928,-0.0001720965
84.99928,-0.0001718083
85.09927,-0.000171506
85.19927,-0.0001712904
85.29927,-0.0001710389
85.39927,-0.0001707347
85.49927,-0.0001704456
85.59927,-0.0001701499
85.69926,-0.0001698721
85.79926,-0.0001696348
85.89926,-0.0001693617
85.99926,-0.0001691112
86.09926,-0.0001689135
86.19926,-0.0001687496
86.29926,-0.0001683917
86.39925,-0.0001681384
86.49925,-0.0001678483
86.59925,-0.0001675752
86.69925,-0.0001673285
86.79925,-0.0001670187
86.89925,-0.0001667305
86.99924,-0.0001665469
87.09924,-0.0001663039
87.19924,-0.0001659847
87.29924,-0.0001657643
87.39924,-0.0001655458
87.49924,-0.0001652134
87.59924,-0.0001650542
87.69923,-0.0001648122
87.79923,-0.0001645297
87.89923,-0.0001642632
87.99923,-0.0001640626
88.09923,-0.0001638601
88.19923,-0.000163539
88.29922,-0.0001633506
88.39922,-0.0001630992
88.49922,-0.0001628581
88.59922,-0.0001626283
88.69922,-0.0001623769
88.79922,-0.0001621433
88.89922,-0.0001619277
88.99921,-0.0001616696
89.09921,-0.0001614191
89.19921,-0.0001611668
89.29921,-0.0001609662
