EXPID. 1221
[电化学]: i-t : @ 0(V) X 600(sec)
起始电位 (V),0
静置时间 (秒),0
运行时间 (秒),600
记录间隔,0.1
电解液 信息:
HNO3,0.4
0.1,-0.01005814
0.2,-0.01005814
0.3,-0.01005814
0.4,-0.01005814
0.5,-0.01005814
0.6,-0.01005814
0.7,-0.01005814
0.8000001,-0.01005814
0.9000001,-0.01005814
1,-0.01005814
1.1,-0.0070436
1.2,-0.006181925
1.3,-0.005617428
1.4,-0.0054148
1.5,-0.006140566
1.6,-0.006369832
1.7,-0.006188707
1.8,-0.005989667
1.9,-0.005963917
2,-0.006088358
2.1,-0.006277513
2.2,-0.006482832
2.3,-0.006650987
2.4,-0.006768459
2.5,-0.006851851
2.6,-0.00690025
2.7,-0.006920728
2.799999,-0.006928257
2.899999,-0.006919013
2.999999,-0.006902153
3.099999,-0.006877576
3.199999,-0.006845368
3.299999,-0.006811925
3.399999,-0.00676872
3.499999,-0.006731742
3.599999,-0.006694201
3.699999,-0.006643114
3.799999,-0.00659973
3.899998,-0.006554618
3.999998,-0.006502459
4.099998,-0.006457753
4.199998,-0.006410121
4.299998,-0.006357477
4.399998,-0.006308641
4.499998,-0.006263051
4.599998,-0.006208389
4.699998,-0.006159178
4.799998,-0.006110809
4.899998,-0.006057659
4.999998,-0.006009089
5.099998,-0.005958828
5.199997,-0.005905788
5.299997,-0.00585537
5.399997,-0.005806257
5.499997,-0.005753912
5.599997,-0.00570567
5.699997,-0.005656857
5.799997,-0.00560812
5.899997,-0.00556108
5.999997,-0.00551387
6.099997,-0.005470078
6.199996,-0.005425113
6.299996,-0.005381595
6.399996,-0.00533955
6.499996,-0.005296822
6.599996,-0.005255805
6.699996,-0.005216422
6.799996,-0.005176606
6.899996,-0.005137624
6.999996,-0.005100802
7.099996,-0.005063347
7.199996,-0.005027137
7.299995,-0.004991573
7.399995,-0.004955819
7.499995,-0.004921978
7.599995,-0.004888551
7.699995,-0.004854365
7.799995,-0.004823304
7.899995,-0.004790618
7.999995,-0.00475881
8.099995,-0.004729051
8.199995,-0.004699138
8.299995,-0.004669731
8.399996,-0.004640267
8.499996,-0.004611478
8.599997,-0.004583946
8.699997,-0.004555683
8.799997,-0.004528508
8.899998,-0.004501665
8.999998,-0.004475951
9.099998,-0.004450766
9.199999,-0.004425609
9.299999,-0.004399856
9.4,-0.004375225
9.5,-0.004350981
9.6,-0.004326358
9.700001,-0.004302389
9.800001,-0.004278779
9.900002,-0.00425501
10,-0.00423211
10.1,-0.004209321
10.2,-0.004186576
10.3,-0.004164292
10.4,-0.004142355
10.5,-0.004120488
10.6,-0.004098657
10.7,-0.004077623
10.8,-0.004056772
10.90001,-0.00403567
11.00001,-0.004015
11.10001,-0.003994731
11.20001,-0.003974514
11.30001,-0.003954757
11.40001,-0.00393572
11.50001,-0.003915691
11.60001,-0.003897166
11.70001,-0.003877903
11.80001,-0.003858728
11.90001,-0.00384027
12.00001,-0.003821656
12.10001,-0.003803054
12.20001,-0.003785003
12.30001,-0.003766706
12.40001,-0.003748641
12.50001,-0.003731087
12.60001,-0.003713229
12.70001,-0.003695874
12.80001,-0.003678925
12.90001,-0.003661475
13.00001,-0.003644538
13.10001,-0.003627662
13.20001,-0.003611652
13.30001,-0.003595782
13.40001,-0.003578804
13.50002,-0.003562565
13.60002,-0.003546986
13.70002,-0.00353038
13.80002,-0.003514528
13.90002,-0.003499128
14.00002,-0.003482891
14.10002,-0.003467124
14.20002,-0.003452084
14.30002,-0.003436203
14.40002,-0.003421152
14.50002,-0.003406314
14.60002,-0.003390884
14.70002,-0.003376127
14.80002,-0.003361531
14.90002,-0.003346523
15.00002,-0.00333219
15.10002,-0.003317697
15.20002,-0.003303249
15.30002,-0.003289066
15.40002,-0.003274912
15.50002,-0.003261243
15.60002,-0.003247389
15.70002,-0.003233535
15.80002,-0.003219875
15.90002,-0.003206394
16.00002,-0.00319255
16.10003,-0.003179423
16.20003,-0.003166087
16.30003,-0.003152565
16.40003,-0.003139751
16.50003,-0.003126645
16.60003,-0.003113502
16.70003,-0.003101131
16.80003,-0.003088108
16.90003,-0.003075228
17.00003,-0.003062876
17.10003,-0.0030501
17.20003,-0.003037644
17.30003,-0.003025643
17.40003,-0.003013156
17.50003,-0.003000891
17.60003,-0.002989017
17.70003,-0.002976728
17.80003,-0.002964892
17.90003,-0.002952955
18.00003,-0.002941356
18.10003,-0.002929874
18.20003,-0.002918259
18.30003,-0.002906255
18.40003,-0.002895272
18.50003,-0.002884079
18.60003,-0.002872317
18.70004,-0.002861473
18.80004,-0.002850299
18.90004,-0.00283901
19.00004,-0.002828158
19.10004,-0.002817184
19.20004,-0.002806199
19.30004,-0.002795566
19.40004,-0.002784842
19.50004,-0.002774118
19.60004,-0.002763753
19.70004,-0.002753358
19.80004,-0.002742819
19.90004,-0.002732692
20.00004,-0.00272249
20.10004,-0.002712118
20.20004,-0.00270192
20.30004,-0.002692142
20.40004,-0.002681929
20.50004,-0.002671611
20.60004,-0.002661771
20.70004,-0.002651933
20.80004,-0.002641914
20.90004,-0.002632529
21.00004,-0.002622957
21.10004,-0.002613483
21.20004,-0.0026037
21.30005,-0.002594177
21.40005,-0.002584715
21.50005,-0.00257554
21.60005,-0.002566183
21.70005,-0.002557002
21.80005,-0.002547796
21.90005,-0.002538625
22.00005,-0.002529602
22.10005,-0.0025205
22.20005,-0.002511382
22.30005,-0.002502672
22.40005,-0.002493612
22.50005,-0.002484846
22.60005,-0.002476112
22.70005,-0.002467212
22.80005,-0.002458639
22.90005,-0.002449824
23.00005,-0.002441082
23.10005,-0.002432677
23.20005,-0.002424282
23.30005,-0.002415563
23.40005,-0.002407453
23.50005,-0.002399116
23.60005,-0.002390743
23.70005,-0.002382589
23.80005,-0.002374434
23.90005,-0.002366119
24.00006,-0.002358091
24.10006,-0.002349946
24.20006,-0.002341935
24.30006,-0.002333928
24.40006,-0.002325949
24.50006,-0.002318105
24.60006,-0.002310292
24.70006,-0.002302738
24.80006,-0.00229478
24.90006,-0.002287023
25.00006,-0.002279455
25.10006,-0.002271942
25.20006,-0.002264287
25.30006,-0.002256935
25.40006,-0.002249472
25.50006,-0.002241875
25.60006,-0.002234543
25.70006,-0.002227356
25.80006,-0.002220009
25.90006,-0.002212789
26.00006,-0.002205501
26.10006,-0.002198474
26.20006,-0.002191279
26.30006,-0.002184107
26.40006,-0.002177001
26.50006,-0.002170009
26.60007,-0.002162968
26.70007,-0.002155965
26.80007,-0.002149313
26.90007,-0.002142177
27.00007,-0.002135522
27.10007,-0.002128785
27.20007,-0.002121982
27.30007,-0.002115442
27.40007,-0.002108814
27.50007,-0.002102121
27.60007,-0.002095528
27.70007,-0.002089163
27.80007,-0.002082634
27.90007,-0.002076173
28.00007,-0.002069816
28.10007,-0.00206349
28.20007,-0.002056948
28.30007,-0.002050571
28.40007,-0.002044271
28.50007,-0.002037851
28.60007,-0.002031744
28.70007,-0.002025499
28.80007,-0.002019291
28.90007,-0.002013251
29.00007,-0.002007183
29.10007,-0.002001249
29.20008,-0.001995193
29.30008,-0.001989104
29.40008,-0.001983358
29.50008,-0.001977364
29.60008,-0.001971158
29.70008,-0.001965364
29.80008,-0.001959374
29.90008,-0.001953461
30.00008,-0.001947712
30.10008,-0.001941989
30.20008,-0.001935881
30.30008,-0.001930266
30.40008,-0.001924624
30.50008,-0.001918766
30.60008,-0.00191327
30.70008,-0.001907605
30.80008,-0.001901913
30.90008,-0.001896378
31.00008,-0.001890745
31.10008,-0.001885223
31.20008,-0.001879698
31.30008,-0.0018743
31.40008,-0.00186887
31.50008,-0.001863455
31.60008,-0.001858124
31.70008,-0.001852899
31.80009,-0.001847563
31.90009,-0.001842155
32.00008,-0.001837083
32.10008,-0.001831846
32.20008,-0.001826623
32.30008,-0.001821708
32.40008,-0.00181631
32.50008,-0.001811221
32.60007,-0.001806215
32.70007,-0.001801203
32.80007,-0.001796138
32.90007,-0.00179111
33.00007,-0.001786111
33.10007,-0.001781162
33.20007,-0.001776218
33.30006,-0.001771239
33.40006,-0.001766411
33.50006,-0.001761465
33.60006,-0.001756577
33.70006,-0.001751982
33.80006,-0.001746967
33.90005,-0.001742337
34.00005,-0.001737526
34.10005,-0.001732806
34.20005,-0.001728166
34.30005,-0.001723478
34.40005,-0.00171879
34.50005,-0.001714136
34.60004,-0.001709603
34.70004,-0.001705174
34.80004,-0.001700471
34.90004,-0.00169607
35.00004,-0.001691735
35.10004,-0.001687212
35.20004,-0.001682689
35.30003,-0.001678278
35.40003,-0.001673974
35.50003,-0.001669623
35.60003,-0.001665236
35.70003,-0.001660854
35.80003,-0.001656623
35.90002,-0.001652131
36.00002,-0.001647905
36.10002,-0.001643739
36.20002,-0.001639378
36.30002,-0.001635172
36.40002,-0.001631096
36.50002,-0.001626845
36.60001,-0.001622668
36.70001,-0.001618607
36.80001,-0.001614286
36.90001,-0.001610228
37.00001,-0.001606238
37.10001,-0.001602025
37.2,-0.001598001
37.3,-0.00159412
37.4,-0.001590023
37.5,-0.001586109
37.6,-0.001582066
37.7,-0.001577977
37.8,-0.001574044
37.89999,-0.001570139
37.99999,-0.001566217
38.09999,-0.001562417
38.19999,-0.00155866
38.29999,-0.001554794
38.39999,-0.001550925
38.49998,-0.001547139
38.59998,-0.001543398
38.69998,-0.001539504
38.79998,-0.00153591
38.89998,-0.001532243
38.99998,-0.001528487
39.09998,-0.001524778
39.19997,-0.00152122
39.29997,-0.00151749
39.39997,-0.001514011
39.49997,-0.001510404
39.59997,-0.001506665
39.69997,-0.001503132
39.79996,-0.001499481
39.89996,-0.001495803
39.99996,-0.001492348
40.09996,-0.001488736
40.19996,-0.001485088
40.29996,-0.001481727
40.39996,-0.001478164
40.49995,-0.001474572
40.59995,-0.001471159
40.69995,-0.001467761
40.79995,-0.001464238
40.89995,-0.001460897
40.99995,-0.001457462
41.09995,-0.001453961
41.19994,-0.001450719
41.29994,-0.001447346
41.39994,-0.001443969
41.49994,-0.001440723
41.59994,-0.001437455
41.69994,-0.00143418
41.79993,-0.001430925
41.89993,-0.00142768
41.99993,-0.001424394
42.09993,-0.001421138
42.19993,-0.001417879
42.29993,-0.001414637
42.39993,-0.001411513
42.49992,-0.001408449
42.59992,-0.001405123
42.69992,-0.001401952
42.79992,-0.0013989
42.89992,-0.001395687
42.99992,-0.001392592
43.09991,-0.001389577
43.19991,-0.001386459
43.29991,-0.00138334
43.39991,-0.001380376
43.49991,-0.00137732
43.59991,-0.001374228
43.69991,-0.001371257
43.7999,-0.001368177
43.8999,-0.001365158
43.9999,-0.001362234
44.0999,-0.001359217
44.1999,-0.00135625
44.2999,-0.001353342
44.39989,-0.001350345
44.49989,-0.001347449
44.59989,-0.001344514
44.69989,-0.001341564
44.79989,-0.001338689
44.89989,-0.001335736
44.99989,-0.001332908
45.09988,-0.001330114
45.19988,-0.001327178
45.29988,-0.001324467
45.39988,-0.001321753
45.49988,-0.001318786
45.59988,-0.001316137
45.69987,-0.001313475
45.79987,-0.001310518
45.89987,-0.00130783
45.99987,-0.001305097
46.09987,-0.001302236
46.19987,-0.001299588
46.29987,-0.001296832
46.39986,-0.001294092
46.49986,-0.001291433
46.59986,-0.001288821
46.69986,-0.001286048
46.79986,-0.001283411
46.89986,-0.001280775
46.99986,-0.00127807
47.09985,-0.001275478
47.19985,-0.00127282
47.29985,-0.001270227
47.39985,-0.001267572
47.49985,-0.001264905
47.59985,-0.001262387
47.69984,-0.001259766
47.79984,-0.001257185
47.89984,-0.001254663
47.99984,-0.001252107
48.09984,-0.001249572
48.19984,-0.001247066
48.29984,-0.001244567
48.39983,-0.001242083
48.49983,-0.001239601
48.59983,-0.001237032
48.69983,-0.001234628
48.79983,-0.001232161
48.89983,-0.001229777
48.99982,-0.001227356
49.09982,-0.001224931
49.19982,-0.001222595
49.29982,-0.001220273
49.39982,-0.001217858
49.49982,-0.001215468
49.59982,-0.001213181
49.69981,-0.00121073
49.79981,-0.001208364
49.89981,-0.001206106
49.99981,-0.00120374
50.09981,-0.001201337
50.19981,-0.001199129
50.2998,-0.001196783
50.3998,-0.001194467
50.4998,-0.001192127
50.5998,-0.001189817
50.6998,-0.001187527
50.7998,-0.00118514
50.8998,-0.001182883
50.99979,-0.001180697
51.09979,-0.001178364
51.19979,-0.001176126
51.29979,-0.001174004
51.39979,-0.001171723
51.49979,-0.001169477
51.59978,-0.001167309
51.69978,-0.001165075
51.79978,-0.001162931
51.89978,-0.001160783
51.99978,-0.001158492
52.09978,-0.001156343
52.19978,-0.001154147
52.29977,-0.001151999
52.39977,-0.001149864
52.49977,-0.001147631
52.59977,-0.001145526
52.69977,-0.001143385
52.79977,-0.001141285
52.89977,-0.001139146
52.99976,-0.001137081
53.09976,-0.001135015
53.19976,-0.001132776
53.29976,-0.00113086
53.39976,-0.001128695
53.49976,-0.001126601
53.59975,-0.00112463
53.69975,-0.001122502
53.79975,-0.001120566
53.89975,-0.001118482
53.99975,-0.001116424
54.09975,-0.001114416
54.19975,-0.00111238
54.29974,-0.001110364
54.39974,-0.001108372
54.49974,-0.001106241
54.59974,-0.001104317
54.69974,-0.001102351
54.79974,-0.001100355
54.89973,-0.001098423
54.99973,-0.001096384
55.09973,-0.001094479
55.19973,-0.001092587
55.29973,-0.00109052
55.39973,-0.001088601
55.49973,-0.001086757
55.59972,-0.001084769
55.69972,-0.001082793
55.79972,-0.001080949
55.89972,-0.001078957
55.99972,-0.001077119
56.09972,-0.001075253
56.19971,-0.001073323
56.29971,-0.001071461
56.39971,-0.001069672
56.49971,-0.00106787
56.59971,-0.001066001
56.69971,-0.001064159
56.79971,-0.00106229
56.8997,-0.00106052
56.9997,-0.001058631
57.0997,-0.001056803
57.1997,-0.001055064
57.2997,-0.001053253
57.3997,-0.00105144
57.49969,-0.001049695
57.59969,-0.00104786
57.69969,-0.001046077
57.79969,-0.001044275
57.89969,-0.001042458
57.99969,-0.00104071
58.09969,-0.001038958
58.19968,-0.00103712
58.29968,-0.001035483
58.39968,-0.00103374
58.49968,-0.001031906
58.59968,-0.001030172
58.69968,-0.001028351
58.79967,-0.00102662
58.89967,-0.001024918
58.99967,-0.001023191
59.09967,-0.001021509
59.19967,-0.001019736
59.29967,-0.001018049
59.39967,-0.001016377
59.49966,-0.001014659
59.59966,-0.001012929
59.69966,-0.00101127
59.79966,-0.001009578
59.89966,-0.001007903
59.99966,-0.001006248
60.09966,-0.001004546
60.19965,-0.001002869
60.29965,-0.001001259
60.39965,-0.0009995733
60.49965,-0.0009979525
60.59965,-0.0009963167
60.69965,-0.0009946648
60.79964,-0.0009930263
60.89964,-0.0009914753
60.99964,-0.0009898122
61.09964,-0.0009882282
61.19964,-0.0009866151
61.29964,-0.0009850056
61.39964,-0.0009834423
61.49963,-0.0009818038
61.59963,-0.0009802602
61.69963,-0.0009786537
61.79963,-0.0009770922
61.89963,-0.0009755496
61.99963,-0.0009738979
62.09962,-0.0009723779
62.19962,-0.0009708429
62.29962,-0.0009692476
62.39962,-0.0009677559
62.49962,-0.0009662792
62.59962,-0.0009646369
62.69962,-0.0009631518
62.79961,-0.0009616836
62.89961,-0.0009600714
62.99961,-0.0009586061
63.09961,-0.0009571049
63.19961,-0.0009555737
63.29961,-0.0009540207
63.3996,-0.0009525366
63.4996,-0.0009509705
63.5996,-0.0009494637
63.6996,-0.0009479494
63.7996,-0.0009465048
63.8996,-0.000944999
63.9996,-0.000943512
64.09959,-0.0009420335
64.19959,-0.0009406256
64.29959,-0.0009392375
64.39959,-0.000937806
64.49959,-0.0009362145
64.59959,-0.0009347981
64.69958,-0.0009333761
64.79958,-0.0009319173
64.89958,-0.0009305189
64.99958,-0.0009290724
65.09958,-0.0009276033
65.19958,-0.0009261945
65.29958,-0.0009247866
65.39957,-0.0009232337
65.49957,-0.0009218794
65.59957,-0.0009204848
65.69957,-0.0009190741
65.79957,-0.000917766
65.89957,-0.0009163129
65.99957,-0.0009149144
66.09956,-0.0009135564
66.19956,-0.000912271
66.29956,-0.0009108245
66.39956,-0.000909442
66.49956,-0.0009081179
66.59956,-0.0009067308
66.69955,-0.0009053662
66.79955,-0.0009039526
66.89955,-0.0009026258
66.99955,-0.0009011633
67.09955,-0.0008999428
67.19955,-0.0008985424
67.29955,-0.0008971317
67.39954,-0.0008958604
67.49954,-0.0008945504
67.59954,-0.000893184
67.69954,-0.0008918457
67.79954,-0.0008906281
67.89954,-0.0008891901
67.99953,-0.0008879084
68.09953,-0.0008866248
68.19953,-0.0008852489
68.29953,-0.0008839804
68.39953,-0.0008826714
68.49953,-0.0008813209
68.59953,-0.0008800176
68.69952,-0.0008787481
68.79952,-0.0008774071
68.89952,-0.0008760963
68.99952,-0.0008748409
69.09952,-0.0008734707
69.19952,-0.0008722041
69.29951,-0.0008709496
69.39951,-0.0008697574
69.49951,-0.0008683967
69.59951,-0.0008672449
69.69951,-0.00086595
69.79951,-0.0008646298
69.89951,-0.0008634902
69.9995,-0.0008622368
70.0995,-0.0008608779
70.1995,-0.0008597572
70.2995,-0.000858547
70.3995,-0.0008571307
70.4995,-0.0008560289
70.59949,-0.0008547633
70.69949,-0.0008534881
70.79949,-0.0008523891
70.89949,-0.0008511432
70.99949,-0.0008498389
71.09949,-0.0008486768
71.19949,-0.0008475279
71.29948,-0.00084625
71.39948,-0.0008450719
71.49948,-0.000843921
71.59948,-0.0008426093
71.69948,-0.0008415026
71.79948,-0.0008402869
71.89948,-0.0008390307
71.99947,-0.0008378827
72.09947,-0.0008366688
72.19947,-0.0008355905
72.29947,-0.0008343456
72.39947,-0.00083319
72.49947,-0.0008320176
72.59946,-0.000830815
72.69946,-0.0008296576
72.79946,-0.000828535
72.89946,-0.0008272882
72.99946,-0.0008261704
73.09946,-0.0008250225
73.19946,-0.0008238829
73.29945,-0.0008227546
73.39945,-0.0008216209
73.49945,-0.0008204625
73.59945,-0.0008193889
73.69945,-0.000818289
73.79945,-0.0008171128
73.89944,-0.0008160138
73.99944,-0.0008148451
74.09944,-0.0008137291
74.19944,-0.0008126425
74.29944,-0.0008115142
74.39944,-0.0008104642
74.49944,-0.0008092871
74.59943,-0.000808204
74.69943,-0.0008071078
74.79943,-0.0008059815
74.89943,-0.0008049004
74.99943,-0.0008037948
75.09943,-0.0008027185
75.19942,-0.0008015987
75.29942,-0.000800511
75.39942,-0.0007994149
75.49942,-0.0007983939
75.59942,-0.0007972488
75.69942,-0.0007960944
75.79942,-0.0007950499
75.89941,-0.0007939801
75.99941,-0.0007928312
76.09941,-0.0007918132
76.19941,-0.0007907791
76.29941,-0.0007896284
76.39941,-0.0007886678
76.4994,-0.0007875867
76.5994,-0.0007864321
76.6994,-0.0007854509
76.7994,-0.0007844337
76.8994,-0.0007833112
76.9994,-0.0007822696
77.0994,-0.0007812376
77.19939,-0.0007801668
77.29939,-0.0007791723
77.39939,-0.0007781063
77.49939,-0.0007770449
77.59939,-0.0007760316
77.69939,-0.0007750504
77.79939,-0.0007740182
77.89938,-0.0007730162
77.99938,-0.0007720076
78.09938,-0.0007709859
78.19938,-0.0007700017
78.29938,-0.0007689564
78.39938,-0.0007679318
78.49937,-0.0007669468
78.59937,-0.0007658902
78.69937,-0.0007649154
78.79937,-0.000763921
78.89937,-0.0007628776
78.99937,-0.0007618822
79.09937,-0.0007608961
79.19936,-0.0007600156
79.29936,-0.0007589788
79.39936,-0.0007579098
79.49936,-0.0007569428
79.59936,-0.0007560349
79.69936,-0.000755129
79.79935,-0.0007541844
79.89935,-0.0007532483
79.99935,-0.000752187
80.09935,-0.0007512943
80.19935,-0.0007503374
80.29935,-0.0007493072
80.39935,-0.0007483249
80.49934,-0.000747402
80.59934,-0.0007463982
80.69934,-0.0007454668
80.79934,-0.0007445251
80.89934,-0.0007435532
80.99934,-0.0007426218
81.09933,-0.0007417178
81.19933,-0.0007406847
81.29933,-0.0007397298
81.39933,-0.0007388153
81.49933,-0.0007378736
81.59933,-0.0007369384
81.69933,-0.0007360156
81.79932,-0.0007350324
81.89932,-0.0007341962
81.99932,-0.0007332544
82.09932,-0.0007323023
82.19932,-0.0007313154
82.29932,-0.0007305291
82.39931,-0.000729626
82.49931,-0.0007286456
82.59931,-0.0007277208
82.69931,-0.0007268573
82.79931,-0.0007259042
82.89931,-0.0007250303
82.99931,-0.0007241036
83.0993,-0.0007231582
83.1993,-0.000722272
83.2993,-0.0007214018
83.3993,-0.0007204431
83.4993,-0.0007195381
83.5993,-0.0007186934
83.6993,-0.000717745
83.79929,-0.0007168552
83.89929,-0.0007158889
83.99929,-0.0007150254
84.09929,-0.0007141439
84.19929,-0.0007132898
84.29929,-0.0007123367
84.39928,-0.000711492
84.49928,-0.0007106105
84.59928,-0.0007096847
84.69928,-0.0007088561
84.79928,-0.0007079708
84.89928,-0.0007070799
84.99928,-0.0007062061
85.09927,-0.0007053679
85.19927,-0.0007044827
85.29927,-0.0007035588
85.39927,-0.0007027649
85.49927,-0.0007019117
85.59927,-0.0007009907
85.69926,-0.0007001234
85.79926,-0.0006992721
85.89926,-0.0006984094
85.99926,-0.0006975628
86.09926,-0.0006967746
86.19926,-0.0006958884
86.29926,-0.0006950258
86.39925,-0.0006942357
86.49925,-0.0006933844
86.59925,-0.0006925415
86.69925,-0.0006916779
86.79925,-0.0006907974
86.89925,-0.0006900064
86.99924,-0.0006891739
87.09924,-0.0006883518
87.19924,-0.0006875033
87.29924,-0.0006866613
87.39924,-0.0006858562
87.49924,-0.0006850453
87.59924,-0.0006841535
87.69923,-0.000683306
87.79923,-0.0006825318
87.89923,-0.0006816994
87.99923,-0.0006808781
88.09923,-0.0006800692
88.19923,-0.0006792339
88.29922,-0.0006784457
88.39922,-0.0006776414
88.49922,-0.0006767864
88.59922,-0.0006759463
88.69922,-0.0006751976
88.79922,-0.0006743887
88.89922,-0.0006735816
88.99921,-0.0006727341
89.09921,-0.0006719534
89.19921,-0.0006711999
89.29921,-0.0006703308
89.39921,-0.0006695745
89.49921,-0.0006687854
89.59921,-0.0006679294
89.6992,-0.0006672532
89.7992,-0.0006664
89.8992,-0.0006655873
89.9992,-0.0006648517
90.0992,-0.000664058
90.1992,-0.0006632593
90.29919,-0.000662472
90.39919,-0.0006617403
90.49919,-0.0006608673
90.59919,-0.0006601384
90.69919,-0.0006593652
