EXPID. 0925
[电化学]: i-t : @ 0(V) X 600(sec)
起始电位 (V),0
静置时间 (秒),0
运行时间 (秒),600
记录间隔,0.1
电解液 信息:
HNO3,0.4
0.1,-0.004988709
0.2,-0.004642383
0.3,-0.003971637
0.4,-0.003422268
0.5,-0.002996157
0.6,-0.002657061
0.7,-0.002382839
0.8000001,-0.002163
0.9000001,-0.001982567
1,-0.001829225
1.1,-0.001700977
1.2,-0.001592163
1.3,-0.001497173
1.4,-0.001414838
1.5,-0.001343139
1.6,-0.001279003
1.7,-0.001222615
1.8,-0.001171902
1.9,-0.001125798
2,-0.001084348
2.1,-0.001047205
2.2,-0.001012363
2.3,-0.0009811182
2.4,-0.0009521024
2.5,-0.0009248892
2.6,-0.0009003166
2.7,-0.0008771679
2.799999,-0.0008553273
2.899999,-0.0008354963
2.999999,-0.0008166306
3.099999,-0.000798717
3.199999,-0.0007823318
3.299999,-0.0007666642
3.399999,-0.0007519308
3.499999,-0.0007380498
3.599999,-0.0007249559
3.699999,-0.0007121192
3.799999,-0.0007002694
3.899998,-0.0006888923
3.999998,-0.0006782253
4.099998,-0.0006677381
4.199998,-0.0006581909
4.299998,-0.0006487746
4.399998,-0.0006398968
4.499998,-0.0006309401
4.599998,-0.00062273
4.699998,-0.0006145351
4.799998,-0.000607166
4.899998,-0.0005998318
4.999998,-0.0005925843
5.099998,-0.0005859102
5.199997,-0.0005793369
5.299997,-0.0005729124
5.399997,-0.0005668006
5.499997,-0.0005607914
5.599997,-0.0005548349
5.699997,-0.0005493475
5.799997,-0.0005439824
5.899997,-0.0005386419
5.999997,-0.0005337025
6.099997,-0.0005287735
6.199996,-0.0005238915
6.299996,-0.0005192884
6.399996,-0.0005148481
6.499996,-0.0005103569
6.599996,-0.0005061183
6.699996,-0.0005021329
6.799996,-0.0004979883
6.899996,-0.0004941121
6.999996,-0.0004903621
7.099996,-0.0004865029
7.199996,-0.0004829724
7.299995,-0.0004793439
7.399995,-0.0004757135
7.499995,-0.000472489
7.599995,-0.0004691939
7.699995,-0.0004658978
7.799995,-0.0004628353
7.899995,-0.0004598067
7.999995,-0.0004566566
8.099995,-0.0004538814
8.199995,-0.0004509968
8.299995,-0.0004479965
8.399996,-0.000445321
8.499996,-0.0004426418
8.599997,-0.0004401452
8.699997,-0.0004376355
8.799997,-0.000434945
8.899998,-0.0004324249
8.999998,-0.0004300772
9.099998,-0.0004276155
9.199999,-0.0004252612
9.299999,-0.000423018
9.4,-0.0004206872
9.5,-0.00041859
9.6,-0.0004164353
9.700001,-0.0004143333
9.800001,-0.0004121749
9.900002,-0.0004099948
10,-0.0004079606
10.1,-0.0004059811
10.2,-0.0004039526
10.3,-0.0004019788
10.4,-0.0004001113
10.5,-0.0003983371
10.6,-0.0003964386
10.7,-0.0003946013
10.8,-0.0003928299
10.90001,-0.0003910302
11.00001,-0.0003893276
11.10001,-0.0003875947
11.20001,-0.0003859279
11.30001,-0.0003843241
11.40001,-0.000382727
11.50001,-0.0003811166
11.60001,-0.0003796145
11.70001,-0.0003778732
11.80001,-0.0003764089
11.90001,-0.0003749577
12.00001,-0.0003734556
12.10001,-0.0003719517
12.20001,-0.0003706022
12.30001,-0.000369198
12.40001,-0.0003677619
12.50001,-0.0003663361
12.60001,-0.000364916
12.70001,-0.0003635514
12.80001,-0.0003622575
12.90001,-0.0003608694
13.00001,-0.0003596131
13.10001,-0.0003583737
13.20001,-0.0003570713
13.30001,-0.0003558424
13.40001,-0.0003545899
13.50002,-0.0003533525
13.60002,-0.0003521376
13.70002,-0.0003510076
13.80002,-0.0003497324
13.90002,-0.000348527
14.00002,-0.000347412
14.10002,-0.0003461915
14.20002,-0.0003450568
14.30002,-0.0003439596
14.40002,-0.0003428823
14.50002,-0.0003418408
14.60002,-0.0003407295
14.70002,-0.0003396088
14.80002,-0.0003385353
14.90002,-0.0003375267
15.00002,-0.0003364851
15.10002,-0.0003355302
15.20002,-0.0003344161
15.30002,-0.0003334415
15.40002,-0.0003324828
15.50002,-0.0003315034
15.60002,-0.0003306803
15.70002,-0.0003298497
15.80002,-0.0003290662
15.90002,-0.0003282949
16.00002,-0.0003273126
16.10003,-0.0003265611
16.20003,-0.0003254876
16.30003,-0.0003243349
16.40003,-0.0003234242
16.50003,-0.0003225371
16.60003,-0.0003215097
16.70003,-0.000320713
16.80003,-0.0003197873
16.90003,-0.0003189897
17.00003,-0.000318385
17.10003,-0.0003174612
17.20003,-0.0003165195
17.30003,-0.0003156154
17.40003,-0.0003148121
17.50003,-0.0003138977
17.60003,-0.0003131001
17.70003,-0.0003122939
17.80003,-0.0003114859
17.90003,-0.0003106901
18.00003,-0.0003099791
18.10003,-0.0003091062
18.20003,-0.0003083387
18.30003,-0.0003075872
18.40003,-0.000306798
18.50003,-0.0003060163
18.60003,-0.0003053402
18.70004,-0.0003045661
18.80004,-0.0003038523
18.90004,-0.000303144
19.00004,-0.000302369
19.10004,-0.0003017004
19.20004,-0.0003009696
19.30004,-0.0003002482
19.40004,-0.0002996408
19.50004,-0.0002990136
19.60004,-0.0002983007
19.70004,-0.0002975163
19.80004,-0.0002968571
19.90004,-0.0002962704
20.00004,-0.0002955518
20.10004,-0.0002948766
20.20004,-0.0002942249
20.30004,-0.0002935262
20.40004,-0.000292979
20.50004,-0.0002923358
20.60004,-0.0002917228
20.70004,-0.0002911012
20.80004,-0.0002904608
20.90004,-0.0002897932
21.00004,-0.0002891782
21.10004,-0.0002885199
21.20004,-0.0002878729
21.30005,-0.0002872919
21.40005,-0.000286709
21.50005,-0.0002860874
21.60005,-0.0002855007
21.70005,-0.0002849498
21.80005,-0.0002843848
21.90005,-0.0002838018
22.00005,-0.0002832933
22.10005,-0.0002826265
22.20005,-0.000282135
22.30005,-0.0002816848
22.40005,-0.0002810294
22.50005,-0.0002804719
22.60005,-0.0002799878
22.70005,-0.0002795019
22.80005,-0.0002788615
22.90005,-0.0002782993
23.00005,-0.0002777277
23.10005,-0.0002772248
23.20005,-0.0002766795
23.30005,-0.0002761512
23.40005,-0.0002756069
23.50005,-0.0002751021
23.60005,-0.000274635
23.70005,-0.0002741161
23.80005,-0.0002737215
23.90005,-0.0002731565
24.00006,-0.0002725236
24.10006,-0.0002720716
24.20006,-0.0002716563
24.30006,-0.0002709953
24.40006,-0.0002705366
24.50006,-0.0002701025
24.60006,-0.0002695393
24.70006,-0.0002691259
24.80006,-0.0002686673
24.90006,-0.0002681503
25.00006,-0.000267734
25.10006,-0.000267314
25.20006,-0.0002667941
25.30006,-0.000266377
25.40006,-0.0002659259
25.50006,-0.0002654324
25.60006,-0.0002652121
25.70006,-0.0002646414
25.80006,-0.0002641178
25.90006,-0.0002638268
26.00006,-0.0002633634
26.10006,-0.0002627476
26.20006,-0.0002623388
26.30006,-0.0002618548
26.40006,-0.0002613886
26.50006,-0.00026101
26.60007,-0.0002606211
26.70007,-0.0002600938
26.80007,-0.0002597218
26.90007,-0.0002592565
27.00007,-0.0002588742
27.10007,-0.0002584486
27.20007,-0.0002580295
27.30007,-0.0002576321
27.40007,-0.0002571923
27.50007,-0.0002568128
27.60007,-0.0002563758
27.70007,-0.0002559916
27.80007,-0.0002555725
27.90007,-0.0002551666
28.00007,-0.0002547588
28.10007,-0.0002543539
28.20007,-0.0002539273
28.30007,-0.0002535214
28.40007,-0.0002531231
28.50007,-0.0002527784
28.60007,-0.0002524224
28.70007,-0.0002519732
28.80007,-0.0002516172
28.90007,-0.0002512886
29.00007,-0.000250812
29.10007,-0.0002504033
29.20008,-0.0002500973
29.30008,-0.0002496942
29.40008,-0.0002493486
29.50008,-0.0002489738
29.60008,-0.0002486056
29.70008,-0.0002482374
29.80008,-0.0002479416
29.90008,-0.0002475358
30.00008,-0.0002471968
30.10008,-0.0002467325
30.20008,-0.000246352
30.30008,-0.0002459706
30.40008,-0.0002456156
30.50008,-0.0002453623
30.60008,-0.0002450157
30.70008,-0.0002445703
30.80008,-0.0002442407
30.90008,-0.0002439289
31.00008,-0.000243524
31.10008,-0.0002431991
31.20008,-0.0002427716
31.30008,-0.0002423817
31.40008,-0.0002420973
31.50008,-0.000241746
31.60008,-0.0002413872
31.70008,-0.0002410642
31.80009,-0.0002407007
31.90009,-0.0002403701
32.00008,-0.0002400829
32.10008,-0.0002397071
32.20008,-0.0002394171
32.30008,-0.0002390903
32.40008,-0.0002387155
32.50008,-0.0002383963
32.60007,-0.0002381175
32.70007,-0.0002377747
32.80007,-0.0002374856
32.90007,-0.0002371861
33.00007,-0.0002368029
33.10007,-0.0002364958
33.20007,-0.0002363
33.30006,-0.0002359129
33.40006,-0.0002355485
33.50006,-0.000235282
33.60006,-0.0002349213
33.70006,-0.0002346312
33.80006,-0.0002344523
33.90005,-0.0002340285
34.00005,-0.0002336895
34.10005,-0.000233391
34.20005,-0.0002331169
34.30005,-0.0002327798
34.40005,-0.0002325095
34.50005,-0.0002321761
34.60004,-0.0002318484
34.70004,-0.000231596
34.80004,-0.000231306
34.90004,-0.0002309782
35.00004,-0.0002307616
35.10004,-0.0002305187
35.20004,-0.0002302154
35.30003,-0.0002299452
35.40003,-0.0002296551
35.50003,-0.0002294573
35.60003,-0.0002291061
35.70003,-0.0002287463
35.80003,-0.0002284459
35.90002,-0.0002281879
36.00002,-0.000227879
36.10002,-0.000227637
36.20002,-0.0002274147
36.30002,-0.000227152
36.40002,-0.0002269976
36.50002,-0.0002266435
36.60001,-0.0002262828
36.70001,-0.0002260407
36.80001,-0.0002256876
36.90001,-0.0002254682
37.00001,-0.0002252638
37.10001,-0.0002249606
37.2,-0.0002247355
37.3,-0.000224501
37.4,-0.000224129
37.5,-0.0002238361
37.6,-0.0002235979
37.7,-0.0002233578
37.8,-0.000223144
37.89999,-0.0002230037
37.99999,-0.0002227315
38.09999,-0.0002223774
38.19999,-0.0002220346
38.29999,-0.0002218661
38.39999,-0.0002216739
38.49998,-0.0002216871
38.59998,-0.0002211748
38.69998,-0.0002207755
38.79998,-0.0002204987
38.89998,-0.0002202406
38.99998,-0.0002198997
39.09998,-0.0002196831
39.19997,-0.0002194514
39.29997,-0.0002191972
39.39997,-0.0002189693
39.49997,-0.0002187282
39.59997,-0.0002186359
39.69997,-0.0002182903
39.79996,-0.00021802
39.89996,-0.0002177441
39.99996,-0.0002174974
40.09996,-0.0002173815
40.19996,-0.0002171414
40.29996,-0.0002168269
40.39996,-0.0002165085
40.49995,-0.0002162175
40.59995,-0.0002160706
40.69995,-0.000215773
40.79995,-0.0002154981
40.89995,-0.0002153464
40.99995,-0.000215112
41.09995,-0.0002148106
41.19994,-0.0002146392
41.29994,-0.0002144499
41.39994,-0.000214126
41.49994,-0.0002139432
41.59994,-0.0002137822
41.69994,-0.0002133839
41.79993,-0.0002132172
41.89993,-0.0002130006
41.99993,-0.0002127256
42.09993,-0.0002125297
42.19993,-0.0002122924
42.29993,-0.0002120306
42.39993,-0.0002119091
42.49992,-0.0002117613
42.59992,-0.0002114448
42.69992,-0.0002112471
42.79992,-0.0002109589
42.89992,-0.0002107056
42.99992,-0.0002104805
43.09991,-0.0002102573
43.19991,-0.000210021
43.29991,-0.0002098703
43.39991,-0.0002096725
43.49991,-0.0002095247
43.59991,-0.0002092996
43.69991,-0.000208953
43.7999,-0.0002086893
43.8999,-0.0002085161
43.9999,-0.0002083221
44.0999,-0.0002080753
44.1999,-0.0002079049
44.2999,-0.0002076431
44.39989,-0.000207467
44.49989,-0.0002073624
44.59989,-0.0002070507
44.69989,-0.0002067626
44.79989,-0.0002066109
44.89989,-0.000206367
44.99989,-0.0002061683
45.09988,-0.0002060195
45.19988,-0.0002057399
45.29988,-0.0002055458
45.39988,-0.0002053886
45.49988,-0.0002051494
45.59988,-0.0002048951
45.69987,-0.0002046992
45.79987,-0.0002045297
45.89987,-0.0002043546
45.99987,-0.0002041172
46.09987,-0.0002039647
46.19987,-0.0002037735
46.29987,-0.0002035286
46.39986,-0.0002034392
46.49986,-0.0002032904
46.59986,-0.0002028572
46.69986,-0.0002026792
46.79986,-0.0002025841
46.89986,-0.0002022969
46.99986,-0.0002020982
47.09985,-0.0002018656
47.19985,-0.0002016471
47.29985,-0.0002014747
47.39985,-0.0002013542
47.49985,-0.000201228
47.59985,-0.0002012459
47.69984,-0.0002009681
47.79984,-0.0002006375
47.89984,-0.0002004247
47.99984,-0.0002002929
48.09984,-0.0001999793
48.19984,-0.0001998173
48.29984,-0.0001996337
48.39983,-0.0001993991
48.49983,-0.0001992381
48.59983,-0.000199062
48.69983,-0.0001988228
48.79983,-0.0001986816
48.89983,-0.0001985516
48.99982,-0.000198287
49.09982,-0.0001981222
49.19982,-0.000197963
49.29982,-0.0001977078
49.39982,-0.0001976061
49.49982,-0.0001973754
49.59982,-0.0001971456
49.69981,-0.0001970307
49.79981,-0.0001968414
49.89981,-0.0001966766
49.99981,-0.0001965175
50.09981,-0.0001963093
50.19981,-0.000196072
50.2998,-0.0001959581
50.3998,-0.000195895
50.4998,-0.000195637
50.5998,-0.0001953723
50.6998,-0.0001951642
50.7998,-0.0001951322
50.8998,-0.0001948854
50.99979,-0.0001946105
51.09979,-0.00019452
51.19979,-0.0001943967
51.29979,-0.0001942121
51.39979,-0.0001940294
51.49979,-0.0001939522
51.59978,-0.0001936772
51.69978,-0.0001934135
51.79978,-0.0001932167
51.89978,-0.0001930161
51.99978,-0.00019284
52.09978,-0.0001927185
52.19978,-0.0001925095
52.29977,-0.0001923381
52.39977,-0.0001921478
52.49977,-0.0001920141
52.59977,-0.0001919039
52.69977,-0.000191612
52.79977,-0.0001915941
52.89977,-0.0001914735
52.99976,-0.0001911383
53.09976,-0.0001910922
53.19976,-0.0001910827
53.29976,-0.0001907437
53.39976,-0.0001905064
53.49976,-0.0001903699
53.59975,-0.0001903256
53.69975,-0.0001902747
53.79975,-0.0001900289
53.89975,-0.0001898811
53.99975,-0.0001896099
54.09975,-0.0001893914
54.19975,-0.0001892153
54.29974,-0.0001891164
54.39974,-0.0001889591
54.49974,-0.0001887915
54.59974,-0.0001886201
54.69974,-0.0001884393
54.79974,-0.0001882434
54.89973,-0.0001880588
54.99973,-0.0001878535
55.09973,-0.0001877528
55.19973,-0.0001875889
55.29973,-0.0001874712
55.39973,-0.0001872763
55.49973,-0.000187167
55.59972,-0.0001869674
55.69972,-0.0001868459
55.79972,-0.0001867479
55.89972,-0.000186617
55.99972,-0.0001863901
56.09972,-0.0001861255
56.19971,-0.000185988
56.29971,-0.0001859493
56.39971,-0.0001856678
56.49971,-0.0001854653
56.59971,-0.0001853928
56.69971,-0.0001852242
56.79971,-0.0001850443
56.8997,-0.0001849022
56.9997,-0.0001846658
57.0997,-0.000184565
57.1997,-0.000184469
57.2997,-0.0001842806
57.3997,-0.0001842147
57.49969,-0.000184064
57.59969,-0.0001839378
57.69969,-0.0001837532
57.79969,-0.0001835197
57.89969,-0.0001834359
57.99969,-0.0001835724
58.09969,-0.0001832118
58.19968,-0.0001828982
58.29968,-0.0001827409
58.39968,-0.0001826175
58.49968,-0.0001824329
58.59968,-0.000182383
58.69968,-0.0001821674
58.79967,-0.0001820195
58.89967,-0.0001819282
58.99967,-0.000181801
59.09967,-0.0001815072
59.19967,-0.0001815439
59.29967,-0.0001814987
59.39967,-0.0001812303
59.49966,-0.0001810693
59.59966,-0.000180865
59.69966,-0.0001807802
59.79966,-0.000180897
59.89966,-0.0001806446
59.99966,-0.0001803912
60.09966,-0.0001802792
60.19965,-0.0001801276
60.29965,-0.0001799034
60.39965,-0.0001797226
60.49965,-0.0001795833
60.59965,-0.0001794985
60.69965,-0.0001794307
60.79964,-0.0001795117
60.89964,-0.0001792226
60.99964,-0.0001789532
61.09964,-0.0001788798
61.19964,-0.0001786924
61.29964,-0.0001784437
61.39964,-0.0001783552
61.49963,-0.000178262
61.59963,-0.0001781076
61.69963,-0.0001779249
61.79963,-0.0001778881
61.89963,-0.0001776376
61.99963,-0.0001776348
62.09962,-0.0001774738
62.19962,-0.0001772157
62.29962,-0.0001771187
62.39962,-0.0001769794
62.49962,-0.0001769304
62.59962,-0.0001768758
62.69962,-0.0001766375
62.79961,-0.0001764011
62.89961,-0.0001764087
62.99961,-0.0001761874
63.09961,-0.0001759632
63.19961,-0.0001758841
63.29961,-0.0001757693
63.3996,-0.000175596
63.4996,-0.0001755941
63.5996,-0.0001753813
63.6996,-0.0001752353
63.7996,-0.000175062
63.8996,-0.0001749113
63.9996,-0.0001747889
64.09959,-0.0001747296
64.19959,-0.0001744913
64.29959,-0.0001743567
64.39959,-0.0001742418
64.49959,-0.000174125
64.59959,-0.0001739639
64.69958,-0.0001738208
64.79958,-0.0001736324
64.89958,-0.0001735336
64.99958,-0.0001734272
65.09958,-0.0001732379
65.19958,-0.0001730975
65.29958,-0.0001729751
65.39957,-0.0001728084
65.49957,-0.000172702
65.59957,-0.0001726361
65.69957,-0.0001724176
65.79957,-0.0001724336
65.89957,-0.0001721756
65.99957,-0.00017204
66.09956,-0.0001719364
66.19956,-0.0001717254
66.29956,-0.0001715908
66.39956,-0.0001715588
66.49956,-0.0001713836
66.59956,-0.0001713054
66.69955,-0.0001711849
66.79955,-0.000171038
66.89955,-0.0001710304
66.99955,-0.0001708431
67.09955,-0.0001705963
67.19955,-0.0001705087
67.29955,-0.0001703458
67.39954,-0.0001702196
67.49954,-0.0001701396
67.59954,-0.0001699465
67.69954,-0.0001698825
67.79954,-0.0001701848
67.89954,-0.0001699117
67.99953,-0.000169713
68.09953,-0.0001695199
68.19953,-0.0001693617
68.29953,-0.0001692007
68.39953,-0.0001691536
68.49953,-0.0001689728
68.59953,-0.000168856
68.69952,-0.0001687854
68.79952,-0.0001685697
68.89952,-0.000168388
68.99952,-0.0001683446
69.09952,-0.0001681968
69.19952,-0.0001680291
69.29951,-0.0001679331
69.39951,-0.0001678079
69.49951,-0.0001676741
69.59951,-0.0001675997
69.69951,-0.0001673784
69.79951,-0.0001673681
69.89951,-0.0001673087
69.9995,-0.000167174
70.0995,-0.000166998
70.1995,-0.0001668162
70.2995,-0.0001666646
70.3995,-0.0001665761
70.4995,-0.0001665148
70.59949,-0.0001663246
70.69949,-0.000166222
70.79949,-0.0001660948
70.89949,-0.0001659357
70.99949,-0.0001658086
71.09949,-0.0001656748
71.19949,-0.0001655571
71.29948,-0.0001654978
71.39948,-0.0001653377
71.49948,-0.0001651993
71.59948,-0.0001651098
71.69948,-0.0001649478
71.79948,-0.0001648442
71.89948,-0.0001647661
71.99947,-0.0001646088
72.09947,-0.000164557
72.19947,-0.0001644355
72.29947,-0.0001642274
72.39947,-0.0001641153
72.49947,-0.0001640626
72.59946,-0.0001639157
72.69946,-0.0001640824
72.79946,-0.0001639232
72.89946,-0.0001636021
72.99946,-0.0001635249
73.09946,-0.0001634307
73.19946,-0.000163199
73.29945,-0.0001631707
73.39945,-0.0001630314
73.49945,-0.0001628506
73.59945,-0.0001628685
73.69945,-0.0001627244
73.79945,-0.0001624664
73.89944,-0.000162408
73.99944,-0.0001623505
74.09944,-0.0001621716
74.19944,-0.000162133
74.29944,-0.0001620991
74.39944,-0.0001619267
74.49944,-0.0001617365
74.59943,-0.0001616169
74.69943,-0.0001615293
74.79943,-0.0001613928
74.89943,-0.0001613155
74.99943,-0.0001611733
75.09943,-0.0001610735
75.19942,-0.0001609539
75.29942,-0.0001608315
75.39942,-0.000160775
75.49942,-0.0001605895
75.59942,-0.0001605057
75.69942,-0.0001603804
75.79942,-0.0001602552
75.89941,-0.0001601497
75.99941,-0.0001600188
76.09941,-0.0001599114
76.19941,-0.0001598154
76.29941,-0.0001596458
76.39941,-0.0001596063
76.4994,-0.0001595253
76.5994,-0.0001594142
76.6994,-0.0001594754
76.7994,-0.0001593012
76.8994,-0.0001590253
76.9994,-0.0001589443
77.0994,-0.0001588915
77.19939,-0.0001587361
77.29939,-0.0001586034
77.39939,-0.0001585177
77.49939,-0.0001584103
77.59939,-0.0001582964
77.69939,-0.00015827
77.79939,-0.0001580835
77.89938,-0.000158108
77.99938,-0.0001580044
78.09938,-0.0001578387
78.19938,-0.000157753
78.29938,-0.0001577003
78.39938,-0.0001575731
78.49937,-0.000157446
78.59937,-0.0001573311
78.69937,-0.0001572369
78.79937,-0.0001571352
78.89937,-0.0001571079
78.99937,-0.0001569459
79.09937,-0.0001568094
79.19936,-0.0001567171
79.29936,-0.0001565862
79.39936,-0.0001564788
79.49936,-0.0001563592
79.59936,-0.0001562811
79.69936,-0.0001562076
79.79935,-0.0001561238
79.89935,-0.0001559967
79.99935,-0.0001558413
80.09935,-0.0001557207
80.19935,-0.0001556548
80.29935,-0.0001554796
80.39935,-0.0001553845
80.49934,-0.0001553082
80.59934,-0.0001552244
80.69934,-0.0001551199
80.79934,-0.0001551397
80.89934,-0.000154989
80.99934,-0.0001547912
81.09933,-0.000154747
81.19933,-0.0001546057
81.29933,-0.0001545275
81.39933,-0.0001544428
81.49933,-0.0001543053
81.59933,-0.0001542309
81.69933,-0.0001541735
81.79932,-0.0001539955
81.89932,-0.0001539597
81.99932,-0.0001537987
82.09932,-0.0001536838
82.19932,-0.0001536188
82.29932,-0.000153518
82.39931,-0.0001533476
82.49931,-0.0001533174
82.59931,-0.0001532383
82.69931,-0.0001530971
82.79931,-0.0001530726
82.89931,-0.0001529718
82.99931,-0.0001528428
83.0993,-0.0001527769
83.1993,-0.0001526224
83.2993,-0.0001525254
83.3993,-0.0001524294
83.4993,-0.0001523559
83.5993,-0.0001522231
83.6993,-0.0001521553
83.79929,-0.0001520414
83.89929,-0.0001519463
83.99929,-0.0001518841
84.09929,-0.000151805
84.19929,-0.0001516769
84.29929,-0.0001516072
84.39928,-0.0001515234
84.49928,-0.0001513087
84.59928,-0.0001512805
84.69928,-0.0001511448
84.79928,-0.0001510516
84.89928,-0.0001510554
84.99928,-0.0001510526
85.09927,-0.000150851
85.19927,-0.0001507041
85.29927,-0.000150593
85.39927,-0.000150545
85.49927,-0.0001506269
85.59927,-0.0001504988
85.69926,-0.0001503274
85.79926,-0.0001502041
85.89926,-0.0001501052
85.99926,-0.0001499366
86.09926,-0.0001498198
86.19926,-0.000149737
86.29926,-0.0001496861
86.39925,-0.0001495646
86.49925,-0.0001495562
86.59925,-0.0001495204
86.69925,-0.000149381
86.79925,-0.0001493141
86.89925,-0.000149203
86.99924,-0.0001490552
87.09924,-0.0001489224
87.19924,-0.0001488828
87.29924,-0.0001487576
87.39924,-0.0001486907
87.49924,-0.0001486238
87.59924,-0.0001485419
87.69923,-0.0001484703
87.79923,-0.0001483526
87.89923,-0.0001481624
87.99923,-0.0001481464
88.09923,-0.0001480936
88.19923,-0.0001479571
